RÖNTEC GmbH Berlin, Germany
Quantax 1.2

Date: 3/3/2015 12:29:12 PM
Real time: 60956
Life time: 60003
Pulse density: 6675


Detector type: XFLASH 3001
Window type: 
Detector thickness: 0.45
Si dead layer:0

Calibration, lin.: 12.507
Calibration, abs.: -1193.107
Mn FWHM: 142.37
Fano factor: 0.105
Channels: 4096

Energy Counts
-1.1931     0
-1.1806     0
-1.1681     0
-1.1556     0
-1.1431     0
-1.1306     0
-1.1181     0
-1.1056     0
 -1.093     0
-1.0805     0
 -1.068     0
-1.0555     0
 -1.043     0
-1.0305     0
 -1.018     0
-1.0055     0
 -0.993     0
-0.9805     0
 -0.968     0
-0.9555     0
 -0.943     0
-0.9305     0
-0.9179     0
-0.9054     0
-0.8929     0
-0.8804     0
-0.8679     0
-0.8554     0
-0.8429     0
-0.8304     0
-0.8179     0
-0.8054     0
-0.7929     0
-0.7804     0
-0.7679     0
-0.7554     0
-0.7428     0
-0.7303     0
-0.7178     0
-0.7053     0
-0.6928     0
-0.6803     0
-0.6678     0
-0.6553     0
-0.6428     0
-0.6303     0
-0.6178     0
-0.6053     0
-0.5928     0
-0.5803     0
-0.5677     0
-0.5552     0
-0.5427     0
-0.5302     0
-0.5177     0
-0.5052     0
-0.4927     0
-0.4802     0
-0.4677     0
-0.4552     0
-0.4427     0
-0.4302     0
-0.4177     0
-0.4051     0
-0.3926     0
-0.3801     0
-0.3676     0
-0.3551     0
-0.3426     0
-0.3301     0
-0.3176     0
-0.3051     0
-0.2926     0
-0.2801     0
-0.2676     0
-0.2551     0
-0.2426     0
  -0.23     0
-0.2175     0
 -0.205     0
-0.1925     0
  -0.18     0
-0.1675     0
 -0.155     0
-0.1425     2
  -0.13    19
-0.1175    71
 -0.105   250
-0.0925   839
  -0.08  2463
-0.0675  6153
-0.0549 13576
-0.0424 25597
-0.0299 42630
-0.0174 62380
-0.0049 78521
 0.0076 87165
 0.0201 84221
 0.0326 71833
 0.0451 53088
 0.0576 34413
 0.0701 19332
 0.0826  9626
 0.0951  4279
 0.1076  1573
 0.1202   530
 0.1327   163
 0.1452    47
 0.1577     7
 0.1702     2
 0.1827     1
 0.1952     0
 0.2077     3
 0.2202     2
 0.2327     1
 0.2452     2
 0.2577     0
 0.2702     4
 0.2828     0
 0.2953     0
 0.3078     0
 0.3203     0
 0.3328     0
 0.3453     0
 0.3578     0
 0.3703     0
 0.3828     0
 0.3953     0
 0.4078     0
 0.4203     0
 0.4328     4
 0.4453    16
 0.4579    30
 0.4704    51
 0.4829    51
 0.4954    43
 0.5079    44
 0.5204    44
 0.5329    48
 0.5454    46
 0.5579    45
 0.5704    46
 0.5829    41
 0.5954    43
 0.6079    45
 0.6204    52
  0.633    46
 0.6455    58
  0.658    49
 0.6705    45
  0.683    45
 0.6955    44
  0.708    51
 0.7205    36
  0.733    34
 0.7455    32
  0.758    38
 0.7705    31
  0.783    30
 0.7955    19
 0.8081    30
 0.8206    27
 0.8331    27
 0.8456    28
 0.8581    29
 0.8706    28
 0.8831    26
 0.8956    26
 0.9081    24
 0.9206    30
 0.9331    25
 0.9456    27
 0.9581    25
 0.9707    20
 0.9832    16
 0.9957    24
 1.0082    18
 1.0207    31
 1.0332    24
 1.0457    19
 1.0582    29
 1.0707    23
 1.0832    14
 1.0957    30
 1.1082    30
 1.1207    30
 1.1332    26
 1.1458    34
 1.1583    24
 1.1708    30
 1.1833    27
 1.1958    17
 1.2083    21
 1.2208    24
 1.2333    27
 1.2458    15
 1.2583    26
 1.2708    27
 1.2833    12
 1.2958    27
 1.3083    15
 1.3209    22
 1.3334    22
 1.3459    27
 1.3584    20
 1.3709    19
 1.3834    21
 1.3959    25
 1.4084    23
 1.4209    13
 1.4334    24
 1.4459    21
 1.4584    25
 1.4709    16
 1.4834    22
  1.496    20
 1.5085    16
  1.521    25
 1.5335    22
  1.546    18
 1.5585    26
  1.571    14
 1.5835    17
  1.596    23
 1.6085    20
  1.621    27
 1.6335    27
  1.646    25
 1.6586    20
 1.6711    29
 1.6836    24
 1.6961    22
 1.7086    28
 1.7211    15
 1.7336    29
 1.7461    18
 1.7586    29
 1.7711    30
 1.7836    25
 1.7961    28
 1.8086    24
 1.8211    23
 1.8337    27
 1.8462    34
 1.8587    28
 1.8712    31
 1.8837    27
 1.8962    26
 1.9087    18
 1.9212    24
 1.9337    24
 1.9462    33
 1.9587    35
 1.9712    29
 1.9837    40
 1.9962    28
 2.0088    23
 2.0213    38
 2.0338    25
 2.0463    37
 2.0588    33
 2.0713    28
 2.0838    28
 2.0963    34
 2.1088    27
 2.1213    24
 2.1338    32
 2.1463    30
 2.1588    48
 2.1713    45
 2.1839    52
 2.1964    44
 2.2089    62
 2.2214    53
 2.2339    72
 2.2464    66
 2.2589   100
 2.2714   119
 2.2839   146
 2.2964   199
 2.3089   255
 2.3214   345
 2.3339   404
 2.3465   461
  2.359   490
 2.3715   510
  2.384   484
 2.3965   500
  2.409   461
 2.4215   491
  2.434   413
 2.4465   442
  2.459   429
 2.4715   375
  2.484   322
 2.4965   315
  2.509   260
 2.5216   209
 2.5341   112
 2.5466   122
 2.5591    62
 2.5716    65
 2.5841    56
 2.5966    57
 2.6091    60
 2.6216    58
 2.6341    64
 2.6466    54
 2.6591    63
 2.6716    68
 2.6841    68
 2.6967    58
 2.7092    48
 2.7217    41
 2.7342    42
 2.7467    26
 2.7592    26
 2.7717    22
 2.7842    16
 2.7967    25
 2.8092    24
 2.8217    21
 2.8342    21
 2.8467    23
 2.8592    22
 2.8718    21
 2.8843    26
 2.8968    23
 2.9093    27
 2.9218    41
 2.9343    34
 2.9468    43
 2.9593    38
 2.9718    50
 2.9843    52
 2.9968    42
 3.0093    41
 3.0218    40
 3.0344    33
 3.0469    47
 3.0594    41
 3.0719    39
 3.0844    40
 3.0969    48
 3.1094    44
 3.1219    46
 3.1344    54
 3.1469    37
 3.1594    37
 3.1719    32
 3.1844    37
 3.1969    24
 3.2095    39
  3.222    35
 3.2345    35
  3.247    42
 3.2595    40
  3.272    55
 3.2845    51
  3.297    66
 3.3095    77
  3.322    66
 3.3345    71
  3.347    71
 3.3595    72
  3.372    56
 3.3846    42
 3.3971    33
 3.4096    37
 3.4221    29
 3.4346    21
 3.4471    27
 3.4596    20
 3.4721    23
 3.4846    24
 3.4971    18
 3.5096    27
 3.5221    18
 3.5346    20
 3.5471    33
 3.5597    35
 3.5722    44
 3.5847    39
 3.5972    68
 3.6097   101
 3.6222   119
 3.6347   177
 3.6472   217
 3.6597   286
 3.6722   289
 3.6847   313
 3.6972   328
 3.7097   320
 3.7223   315
 3.7348   267
 3.7473   209
 3.7598   210
 3.7723   148
 3.7848   106
 3.7973    81
 3.8098    68
 3.8223    42
 3.8348    41
 3.8473    27
 3.8598    38
 3.8723    17
 3.8848    22
 3.8974    23
 3.9099    24
 3.9224    31
 3.9349    27
 3.9474    32
 3.9599    41
 3.9724    42
 3.9849    41
 3.9974    58
 4.0099    53
 4.0224    72
 4.0349    57
 4.0474    45
 4.0599    41
 4.0725    50
  4.085    52
 4.0975    32
   4.11    35
 4.1225    30
  4.135    13
 4.1475    23
   4.16    17
 4.1725    15
  4.185    19
 4.1975    11
   4.21    10
 4.2225    23
  4.235    16
 4.2476    16
 4.2601    14
 4.2726    14
 4.2851    20
 4.2976    19
 4.3101     9
 4.3226    16
 4.3351    16
 4.3476    12
 4.3601    27
 4.3726    18
 4.3851    23
 4.3976    15
 4.4102    15
 4.4227    17
 4.4352    23
 4.4477    24
 4.4602    26
 4.4727    20
 4.4852    28
 4.4977    22
 4.5102    21
 4.5227    24
 4.5352    28
 4.5477    26
 4.5602    24
 4.5727    18
 4.5853    26
 4.5978    19
 4.6103    17
 4.6228    21
 4.6353    13
 4.6478    27
 4.6603    24
 4.6728    14
 4.6853    25
 4.6978    23
 4.7103    20
 4.7228    15
 4.7353    17
 4.7478    12
 4.7604    10
 4.7729    14
 4.7854    18
 4.7979    15
 4.8104    21
 4.8229    20
 4.8354     8
 4.8479    19
 4.8604    16
 4.8729    18
 4.8854    21
 4.8979    18
 4.9104    21
 4.9229    14
 4.9355    20
  4.948    19
 4.9605    22
  4.973    11
 4.9855    21
  4.998    19
 5.0105    25
  5.023    21
 5.0355    21
  5.048    16
 5.0605    19
  5.073    19
 5.0855    18
 5.0981    19
 5.1106    15
 5.1231    27
 5.1356    27
 5.1481    17
 5.1606    26
 5.1731    16
 5.1856    25
 5.1981    16
 5.2106    30
 5.2231    28
 5.2356    19
 5.2481    19
 5.2606    21
 5.2732    27
 5.2857    17
 5.2982    23
 5.3107    20
 5.3232    27
 5.3357    23
 5.3482    23
 5.3607    24
 5.3732    27
 5.3857    26
 5.3982    13
 5.4107    29
 5.4232    21
 5.4357    23
 5.4483    23
 5.4608    27
 5.4733    28
 5.4858    25
 5.4983    24
 5.5108    16
 5.5233    20
 5.5358    19
 5.5483    23
 5.5608    20
 5.5733    22
 5.5858    20
 5.5983    30
 5.6108    22
 5.6234    21
 5.6359    21
 5.6484    28
 5.6609    28
 5.6734    26
 5.6859    25
 5.6984    27
 5.7109    32
 5.7234    30
 5.7359    34
 5.7484    27
 5.7609    35
 5.7734    33
  5.786    31
 5.7985    25
  5.811    35
 5.8235    33
  5.836    35
 5.8485    32
  5.861    41
 5.8735    37
  5.886    47
 5.8985    40
  5.911    31
 5.9235    37
  5.936    28
 5.9485    33
 5.9611    19
 5.9736    34
 5.9861    38
 5.9986    27
 6.0111    28
 6.0236    27
 6.0361    36
 6.0486    28
 6.0611    26
 6.0736    34
 6.0861    29
 6.0986    29
 6.1111    27
 6.1236    30
 6.1362    30
 6.1487    33
 6.1612    33
 6.1737    34
 6.1862    45
 6.1987    29
 6.2112    40
 6.2237    39
 6.2362    51
 6.2487    61
 6.2612    88
 6.2737    97
 6.2862   126
 6.2988   173
 6.3113   223
 6.3238   288
 6.3363   344
 6.3488   433
 6.3613   466
 6.3738   572
 6.3863   578
 6.3988   631
 6.4113   643
 6.4238   609
 6.4363   570
 6.4488   446
 6.4613   440
 6.4739   333
 6.4864   288
 6.4989   238
 6.5114   177
 6.5239   141
 6.5364    98
 6.5489    64
 6.5614    49
 6.5739    53
 6.5864    56
 6.5989    37
 6.6114    49
 6.6239    41
 6.6364    33
  6.649    28
 6.6615    36
  6.674    44
 6.6865    29
  6.699    34
 6.7115    40
  6.724    28
 6.7365    49
  6.749    37
 6.7615    42
  6.774    33
 6.7865    39
  6.799    34
 6.8115    33
 6.8241    39
 6.8366    42
 6.8491    40
 6.8616    36
 6.8741    50
 6.8866    56
 6.8991    41
 6.9116    51
 6.9241    52
 6.9366    64
 6.9491    66
 6.9616    65
 6.9741    75
 6.9867    80
 6.9992    86
 7.0117    99
 7.0242   120
 7.0367   128
 7.0492   136
 7.0617   120
 7.0742   134
 7.0867   103
 7.0992   111
 7.1117   119
 7.1242    99
 7.1367    84
 7.1492   105
 7.1618    83
 7.1743    73
 7.1868    61
 7.1993    48
 7.2118    43
 7.2243    37
 7.2368    64
 7.2493    51
 7.2618    51
 7.2743    64
 7.2868    59
 7.2993    63
 7.3118    77
 7.3243    60
 7.3369    95
 7.3494    63
 7.3619    69
 7.3744    95
 7.3869    82
 7.3994    65
 7.4119    82
 7.4244    87
 7.4369    93
 7.4494    71
 7.4619    83
 7.4744    83
 7.4869    76
 7.4994    77
  7.512    65
 7.5245    69
  7.537    44
 7.5495    46
  7.562    56
 7.5745    69
  7.587    52
 7.5995    62
  7.612    46
 7.6245    57
  7.637    61
 7.6495    47
  7.662    50
 7.6746    59
 7.6871    64
 7.6996    62
 7.7121    56
 7.7246    49
 7.7371    58
 7.7496    56
 7.7621    67
 7.7746    56
 7.7871    64
 7.7996    76
 7.8121    50
 7.8246    84
 7.8371    60
 7.8497    71
 7.8622    48
 7.8747    81
 7.8872    82
 7.8997    77
 7.9122    91
 7.9247   100
 7.9372    94
 7.9497   118
 7.9622   120
 7.9747   137
 7.9872   182
 7.9997   155
 8.0122   167
 8.0248   217
 8.0373   204
 8.0498   220
 8.0623   245
 8.0748   217
 8.0873   201
 8.0998   211
 8.1123   222
 8.1248   187
 8.1373   167
 8.1498   179
 8.1623   206
 8.1748   195
 8.1873   184
 8.1999   206
 8.2124   232
 8.2249   268
 8.2374   265
 8.2499   302
 8.2624   345
 8.2749   387
 8.2874   452
 8.2999   530
 8.3124   606
 8.3249   721
 8.3374   820
 8.3499   906
 8.3625   942
  8.375   987
 8.3875  1016
    8.4   987
 8.4125  1020
  8.425   968
 8.4375   868
   8.45   744
 8.4625   652
  8.475   526
 8.4875   454
    8.5   358
 8.5125   267
  8.525   232
 8.5376   191
 8.5501   163
 8.5626   127
 8.5751   126
 8.5876    94
 8.6001    98
 8.6126    87
 8.6251    81
 8.6376    98
 8.6501    87
 8.6626    91
 8.6751    99
 8.6876    97
 8.7001   108
 8.7127   105
 8.7252   107
 8.7377   111
 8.7502    94
 8.7627    89
 8.7752    82
 8.7877   113
 8.8002    88
 8.8127   102
 8.8252    93
 8.8377    87
 8.8502    96
 8.8627   112
 8.8752   113
 8.8878    93
 8.9003    76
 8.9128    96
 8.9253    96
 8.9378    92
 8.9503   104
 8.9628   104
 8.9753   112
 8.9878   107
 9.0003   113
 9.0128   100
 9.0253   117
 9.0378   154
 9.0504   175
 9.0629   213
 9.0754   254
 9.0879   287
 9.1004   303
 9.1129   379
 9.1254   378
 9.1379   443
 9.1504   512
 9.1629   506
 9.1754   520
 9.1879   552
 9.2004   513
 9.2129   548
 9.2255   532
  9.238   460
 9.2505   445
  9.263   402
 9.2755   395
  9.288   334
 9.3005   331
  9.313   264
 9.3255   264
  9.338   226
 9.3505   211
  9.363   217
 9.3755   226
  9.388   208
 9.4006   204
 9.4131   249
 9.4256   231
 9.4381   251
 9.4506   234
 9.4631   247
 9.4756   299
 9.4881   276
 9.5006   289
 9.5131   333
 9.5256   357
 9.5381   384
 9.5506   433
 9.5631   452
 9.5757   481
 9.5882   527
 9.6007   623
 9.6132   634
 9.6257   675
 9.6382   704
 9.6507   704
 9.6632   691
 9.6757   737
 9.6882   742
 9.7007   682
 9.7132   643
 9.7257   603
 9.7383   548
 9.7508   521
 9.7633   485
 9.7758   455
 9.7883   405
 9.8008   385
 9.8133   320
 9.8258   345
 9.8383   332
 9.8508   348
 9.8633   386
 9.8758   418
 9.8883   454
 9.9008   494
 9.9134   474
 9.9259   510
 9.9384   570
 9.9509   617
 9.9634   542
 9.9759   571
 9.9884   556
10.0009   531
10.0134   448
10.0259   458
10.0384   389
10.0509   356
10.0634   292
10.0759   281
10.0885   229
 10.101   195
10.1135   175
 10.126   145
10.1385   182
 10.151   153
10.1635   118
 10.176   119
10.1885   110
 10.201   125
10.2135   133
 10.226   147
10.2385   160
 10.251   159
10.2636   182
10.2761   226
10.2886   261
10.3011   340
10.3136   429
10.3261   532
10.3386   701
10.3511   929
10.3636  1094
10.3761  1408
10.3886  1806
10.4011  2163
10.4136  2683
10.4262  3235
10.4387  3986
10.4512  4648
10.4637  5357
10.4762  6155
10.4887  6923
10.5012  7275
10.5137  7799
10.5262  8203
10.5387  8456
10.5512  8368
10.5637  8161
10.5762  7671
10.5887  7114
10.6013  6370
10.6138  5573
10.6263  4932
10.6388  4079
10.6513  3306
10.6638  2572
10.6763  2045
10.6888  1542
10.7013  1202
10.7138   854
10.7263   656
10.7388   479
10.7513   349
10.7638   266
10.7764   194
10.7889   170
10.8014   137
10.8139   112
10.8264    95
10.8389   102
10.8514    87
10.8639    95
10.8764    98
10.8889    75
10.9014    82
10.9139    83
10.9264    87
10.9389    75
10.9515    72
 10.964    65
10.9765    77
 10.989    61
11.0015    60
 11.014    72
11.0265    65
 11.039    78
11.0515    61
 11.064    59
11.0765    66
 11.089    47
11.1015    61
11.1141    59
11.1266    72
11.1391    76
11.1516    59
11.1641    99
11.1766   102
11.1891   112
11.2016   135
11.2141   126
11.2266   130
11.2391   161
11.2516   196
11.2641   167
11.2766   215
11.2892   196
11.3017   210
11.3142   229
11.3267   220
11.3392   214
11.3517   248
11.3642   212
11.3767   210
11.3892   170
11.4017   157
11.4142   131
11.4267   125
11.4392   122
11.4517   112
11.4643   102
11.4768    95
11.4893    91
11.5018    79
11.5143    86
11.5268    75
11.5393    65
11.5518    52
11.5643    70
11.5768    66
11.5893    74
11.6018    78
11.6143    83
11.6268    78
11.6394    81
11.6519    79
11.6644    79
11.6769    94
11.6894    82
11.7019    98
11.7144   104
11.7269   117
11.7394   106
11.7519   131
11.7644   123
11.7769   145
11.7894   149
 11.802   141
11.8145   154
 11.827   172
11.8395   184
 11.852   155
11.8645   150
 11.877   159
11.8895   162
 11.902   137
11.9145   147
 11.927   136
11.9395   133
 11.952   135
11.9645   142
11.9771   113
11.9896   120
12.0021   117
12.0146   109
12.0271   134
12.0396   131
12.0521   141
12.0646   165
12.0771   191
12.0896   185
12.1021   205
12.1146   227
12.1271   248
12.1396   255
12.1522   263
12.1647   263
12.1772   286
12.1897   312
12.2022   358
12.2147   384
12.2272   407
12.2397   436
12.2522   411
12.2647   433
12.2772   450
12.2897   435
12.3022   451
12.3147   460
12.3273   418
12.3398   426
12.3523   433
12.3648   441
12.3773   453
12.3898   493
12.4023   542
12.4148   635
12.4273   790
12.4398  1001
12.4523  1238
12.4648  1582
12.4773  1878
12.4899  2345
12.5024  2859
12.5149  3253
12.5274  3888
12.5399  4302
12.5524  4709
12.5649  5342
12.5774  5493
12.5899  5723
12.6024  5747
12.6149  5642
12.6274  5636
12.6399  5358
12.6524  5005
 12.665  4568
12.6775  4258
  12.69  3616
12.7025  3190
 12.715  2656
12.7275  2298
  12.74  1879
12.7525  1635
 12.765  1326
12.7775  1100
  12.79   993
12.8025   867
 12.815   694
12.8275   636
12.8401   530
12.8526   462
12.8651   424
12.8776   386
12.8901   314
12.9026   322
12.9151   293
12.9276   302
12.9401   263
12.9526   287
12.9651   243
12.9776   217
12.9901   257
13.0026   242
13.0152   269
13.0277   217
13.0402   226
13.0527   196
13.0652   179
13.0777   177
13.0902   149
13.1027   164
13.1152   107
13.1277   125
13.1402    98
13.1527    88
13.1652    69
13.1778    62
13.1903    49
13.2028    49
13.2153    34
13.2278    49
13.2403    44
13.2528    39
13.2653    41
13.2778    45
13.2903    28
13.3028    34
13.3153    35
13.3278    34
13.3403    32
13.3529    43
13.3654    32
13.3779    29
13.3904    40
13.4029    23
13.4154    30
13.4279    27
13.4404    25
13.4529    22
13.4654    21
13.4779    16
13.4904    19
13.5029    29
13.5154    25
 13.528    17
13.5405    21
 13.553    18
13.5655    27
 13.578    21
13.5905    17
 13.603    30
13.6155    26
 13.628    19
13.6405    27
 13.653    19
13.6655    24
 13.678    28
13.6905    18
13.7031    16
13.7156    23
13.7281    22
13.7406    26
13.7531    38
13.7656    19
13.7781    34
13.7906    30
13.8031    32
13.8156    28
13.8281    39
13.8406    28
13.8531    35
13.8657    24
13.8782    38
13.8907    27
13.9032    22
13.9157    38
13.9282    18
13.9407    21
13.9532    23
13.9657    22
13.9782    21
13.9907    22
14.0032    20
14.0157    30
14.0282    16
14.0408    20
14.0533    26
14.0658    30
14.0783    21
14.0908    20
14.1033    33
14.1158    29
14.1283    21
14.1408    29
14.1533    29
14.1658    33
14.1783    42
14.1908    36
14.2033    35
14.2159    52
14.2284    46
14.2409    43
14.2534    39
14.2659    51
14.2784    48
14.2909    34
14.3034    47
14.3159    44
14.3284    43
14.3409    38
14.3534    37
14.3659    48
14.3784    34
 14.391    36
14.4035    30
 14.416    33
14.4285    28
 14.441    30
14.4535    46
 14.466    31
14.4785    31
 14.491    34
14.5035    41
 14.516    66
14.5285    41
 14.541    81
14.5536    89
14.5661    90
14.5786   114
14.5911   142
14.6036   187
14.6161   215
14.6286   255
14.6411   332
14.6536   373
14.6661   439
14.6786   466
14.6911   516
14.7036   579
14.7161   552
14.7287   638
14.7412   594
14.7537   650
14.7662   614
14.7787   524
14.7912   541
14.8037   496
14.8162   439
14.8287   438
14.8412   350
14.8537   314
14.8662   285
14.8787   213
14.8912   204
14.9038   164
14.9163   124
14.9288   115
14.9413   109
14.9538    96
14.9663    96
14.9788   102
14.9913   101
15.0038    90
15.0163   118
15.0288   110
15.0413   143
15.0538   149
15.0663   154
15.0789   159
15.0914   190
15.1039   184
15.1164   182
15.1289   206
15.1414   177
15.1539   185
15.1664   195
15.1789   214
15.1914   163
15.2039   177
15.2164   139
15.2289   158
15.2415   126
 15.254   122
15.2665   116
 15.279    87
15.2915    79
 15.304    58
15.3165    55
 15.329    37
15.3415    47
 15.354    32
15.3665    30
 15.379    22
15.3915    19
 15.404    18
15.4166    31
15.4291    21
15.4416    15
15.4541    23
15.4666    19
15.4791    14
15.4916    16
15.5041    22
15.5166    23
15.5291     8
15.5416    11
15.5541    27
15.5666    29
15.5791    26
15.5917    28
15.6042    38
15.6167    39
15.6292    41
15.6417    44
15.6542    38
15.6667    46
15.6792    63
15.6917    42
15.7042    52
15.7167    59
15.7292    76
15.7417    66
15.7542    63
15.7668    61
15.7793    57
15.7918    59
15.8043    49
15.8168    48
15.8293    32
15.8418    31
15.8543    43
15.8668    26
15.8793    25
15.8918    25
15.9043    18
15.9168    21
15.9294    19
15.9419    19
15.9544    15
15.9669     9
15.9794    16
15.9919     8
16.0044    16
16.0169    12
16.0294    11
16.0419    19
16.0544    12
16.0669    10
16.0794    12
16.0919     8
16.1045    11
 16.117    12
16.1295    15
 16.142    10
16.1545    13
 16.167    14
16.1795    18
 16.192    13
16.2045     7
 16.217     7
16.2295    16
 16.242     6
16.2545    11
 16.267     9
16.2796     7
16.2921     5
16.3046    12
16.3171     7
16.3296    10
16.3421    15
16.3546    13
16.3671    13
16.3796    15
16.3921     9
16.4046     7
16.4171    14
16.4296    11
16.4421     8
16.4547     9
16.4672     9
16.4797    11
16.4922    15
16.5047     7
16.5172     9
16.5297     9
16.5422    16
16.5547    10
16.5672     8
16.5797    10
16.5922    11
16.6047     8
16.6173     9
16.6298    15
16.6423     7
16.6548    12
16.6673    18
16.6798     7
16.6923    12
16.7048    16
16.7173    11
16.7298     5
16.7423    10
16.7548    22
16.7673     7
16.7798    14
16.7924    17
16.8049    12
16.8174    14
16.8299    13
16.8424    10
16.8549    12
16.8674    11
16.8799    14
16.8924     7
16.9049    15
16.9174     9
16.9299    17
16.9424    14
16.9549     9
16.9675     6
  16.98     9
16.9925    11
 17.005     8
17.0175    11
  17.03     7
17.0425    11
 17.055    11
17.0675     5
  17.08     8
17.0925    21
 17.105    13
17.1175    11
  17.13    10
17.1426    17
17.1551     8
17.1676    11
17.1801    11
17.1926    17
17.2051     6
17.2176    10
17.2301     8
17.2426    15
17.2551     4
17.2676    21
17.2801    10
17.2926     9
17.3052    11
17.3177     7
17.3302    14
17.3427    11
17.3552    17
17.3677     6
17.3802    16
17.3927    16
17.4052    10
17.4177    18
17.4302     5
17.4427     7
17.4552     9
17.4677     8
17.4803    15
17.4928    13
17.5053    11
17.5178    12
17.5303     8
17.5428    17
17.5553    11
17.5678    26
17.5803    18
17.5928    18
17.6053    15
17.6178     9
17.6303    13
17.6428    21
17.6554    15
17.6679    18
17.6804    14
17.6929     7
17.7054    17
17.7179     8
17.7304    10
17.7429    17
17.7554    15
17.7679    15
17.7804    13
17.7929    10
17.8054    13
17.8179    10
17.8305    16
 17.843     7
17.8555    14
 17.868    12
17.8805    10
 17.893    10
17.9055    16
 17.918     6
17.9305     9
 17.943    12
17.9555    11
 17.968    15
17.9805    12
17.9931    10
18.0056     5
18.0181    18
18.0306     9
18.0431    20
18.0556    11
18.0681     9
18.0806    10
18.0931    14
18.1056    11
18.1181    11
18.1306    11
18.1431    10
18.1556    12
18.1682     8
18.1807    12
18.1932    11
18.2057     9
18.2182    13
18.2307     6
18.2432    11
18.2557     9
18.2682     9
18.2807    11
18.2932     6
18.3057    14
18.3182    12
18.3307    15
18.3433    10
18.3558     7
18.3683    11
18.3808     9
18.3933     9
18.4058     7
18.4183     7
18.4308    15
18.4433     8
18.4558    11
18.4683    11
18.4808     9
18.4933    12
18.5058    10
18.5184    11
18.5309    10
18.5434     9
18.5559    10
18.5684    16
18.5809    14
18.5934     9
18.6059     4
18.6184    15
18.6309    10
18.6434     9
18.6559    10
18.6684     7
 18.681    13
18.6935    10
 18.706     7
18.7185    15
 18.731    13
18.7435    11
 18.756    12
18.7685     6
 18.781     7
18.7935    11
 18.806     8
18.8185    11
 18.831     2
18.8435    11
18.8561    10
18.8686    14
18.8811    18
18.8936    13
18.9061     9
18.9186    12
18.9311     7
18.9436     7
18.9561     7
18.9686     8
18.9811     9
18.9936     9
19.0061     9
19.0186    14
19.0312    12
19.0437    12
19.0562     4
19.0687     9
19.0812     9
19.0937    11
19.1062    11
19.1187    10
19.1312     8
19.1437    12
19.1562     8
19.1687     2
19.1812    12
19.1937    12
19.2063    11
19.2188    14
19.2313     9
19.2438     8
19.2563     5
19.2688     5
19.2813    10
19.2938     8
19.3063    10
19.3188    10
19.3313    10
19.3438     8
19.3563    10
19.3689    12
19.3814    11
19.3939     8
19.4064     5
19.4189     5
19.4314    10
19.4439     8
19.4564     6
19.4689    11
19.4814    12
19.4939     3
19.5064     8
19.5189     8
19.5314     9
 19.544    14
19.5565     8
 19.569    12
19.5815    12
 19.594    11
19.6065     7
 19.619     6
19.6315     8
 19.644    11
19.6565     4
 19.669     9
19.6815     5
 19.694    16
19.7065     8
19.7191     5
19.7316     4
19.7441    12
19.7566     8
19.7691     7
19.7816     9
19.7941    13
19.8066     9
19.8191     7
19.8316    11
19.8441     8
19.8566     8
19.8691    11
19.8816     8
19.8942     7
19.9067     5
19.9192    11
19.9317     9
19.9442     7
19.9567    11
19.9692     9
19.9817    14
19.9942    12
20.0067    11
20.0192     9
20.0317    14
20.0442    19
20.0568     8
20.0693    12
20.0818    12
20.0943     8
20.1068    12
20.1193    14
20.1318    14
20.1443    10
20.1568     8
20.1693    13
20.1818     9
20.1943    12
20.2068    12
20.2193     9
20.2319     8
20.2444     7
20.2569     8
20.2694    13
20.2819    10
20.2944     8
20.3069    15
20.3194     4
20.3319    11
20.3444     9
20.3569     6
20.3694     4
20.3819     7
20.3944    10
 20.407     8
20.4195     4
 20.432     9
20.4445    10
 20.457     5
20.4695    10
 20.482    10
20.4945     6
 20.507     4
20.5195    14
 20.532     4
20.5445     4
 20.557    11
20.5695    11
20.5821     8
20.5946     7
20.6071     8
20.6196     5
20.6321     3
20.6446     8
20.6571    11
20.6696     8
20.6821    12
20.6946    14
20.7071     9
20.7196    10
20.7321    12
20.7447     5
20.7572     5
20.7697     6
20.7822     6
20.7947     7
20.8072     8
20.8197     8
20.8322    11
20.8447     8
20.8572     8
20.8697     9
20.8822     7
20.8947    11
20.9072     8
20.9198     8
20.9323     7
20.9448    12
20.9573    15
20.9698    10
20.9823    10
20.9948     9
21.0073    10
21.0198     5
21.0323     4
21.0448     7
21.0573     7
21.0698    10
21.0823     6
21.0949     5
21.1074    12
21.1199     8
21.1324     3
21.1449     8
21.1574     5
21.1699     8
21.1824     8
21.1949    10
21.2074    10
21.2199    10
21.2324     5
21.2449     7
21.2574     6
  21.27     4
21.2825     7
 21.295    10
21.3075     6
  21.32     5
21.3325    13
 21.345    10
21.3575    12
  21.37    10
21.3825     8
 21.395    11
21.4075    10
  21.42     7
21.4326    11
21.4451     4
21.4576    16
21.4701    10
21.4826     3
21.4951     3
21.5076     5
21.5201     6
21.5326     9
21.5451     9
21.5576     7
21.5701     9
21.5826     7
21.5951     8
21.6077     9
21.6202     9
21.6327     7
21.6452    13
21.6577     3
21.6702    13
21.6827     8
21.6952     9
21.7077     6
21.7202     9
21.7327    10
21.7452     4
21.7577     2
21.7702     9
21.7828    11
21.7953     5
21.8078    11
21.8203    10
21.8328     6
21.8453     7
21.8578    11
21.8703    10
21.8828     4
21.8953     5
21.9078     7
21.9203     8
21.9328     7
21.9453     7
21.9579     8
21.9704     9
21.9829     7
21.9954    10
22.0079     7
22.0204     9
22.0329     7
22.0454     4
22.0579     8
22.0704    13
22.0829    11
22.0954     7
22.1079     7
22.1205    11
 22.133     6
22.1455    12
 22.158     8
22.1705     5
 22.183    12
22.1955    11
 22.208     6
22.2205     7
 22.233    11
22.2455     5
 22.258     6
22.2705    12
 22.283    11
22.2956     6
22.3081     9
22.3206     6
22.3331     6
22.3456     3
22.3581    10
22.3706     8
22.3831     7
22.3956    11
22.4081     6
22.4206     6
22.4331    10
22.4456     8
22.4581     9
22.4707     6
22.4832     7
22.4957     4
22.5082     4
22.5207     8
22.5332     7
22.5457    10
22.5582    12
22.5707     5
22.5832     7
22.5957     7
22.6082     7
22.6207    10
22.6332     6
22.6458     7
22.6583     4
22.6708     8
22.6833     5
22.6958     6
22.7083     5
22.7208     9
22.7333    11
22.7458     8
22.7583    11
22.7708    10
22.7833     8
22.7958     2
22.8084     5
22.8209     6
22.8334     5
22.8459     8
22.8584    10
22.8709     9
22.8834     7
22.8959     5
22.9084     5
22.9209     6
22.9334    11
22.9459    13
22.9584     5
22.9709    11
22.9835     7
 22.996     7
23.0085     8
 23.021     9
23.0335     6
 23.046     6
23.0585     9
 23.071     5
23.0835    13
 23.096     7
23.1085    13
 23.121     4
23.1335     5
 23.146     7
23.1586    11
23.1711    15
23.1836     4
23.1961     8
23.2086     7
23.2211     4
23.2336     4
23.2461     8
23.2586    11
23.2711     4
23.2836     8
23.2961     4
23.3086     8
23.3211     8
23.3337    11
23.3462     5
23.3587     6
23.3712     4
23.3837     5
23.3962     3
23.4087     5
23.4212     8
23.4337     5
23.4462     6
23.4587     7
23.4712     4
23.4837     6
23.4963     8
23.5088     5
23.5213     2
23.5338     6
23.5463     8
23.5588     7
23.5713     8
23.5838     7
23.5963     5
23.6088     6
23.6213     5
23.6338     8
23.6463     3
23.6588     5
23.6714     5
23.6839     4
23.6964     8
23.7089     3
23.7214     4
23.7339     2
23.7464     9
23.7589     9
23.7714     5
23.7839     6
23.7964     6
23.8089     4
23.8214    11
23.8339     5
23.8465     8
 23.859     2
23.8715     7
 23.884     4
23.8965     6
 23.909     7
23.9215     9
 23.934     7
23.9465     8
 23.959     7
23.9715     7
 23.984     3
23.9965     4
 24.009     4
24.0216     2
24.0341     6
24.0466     6
24.0591     4
24.0716     5
24.0841     6
24.0966     8
24.1091     3
24.1216     4
24.1341     2
24.1466     5
24.1591     5
24.1716     4
24.1842     5
24.1967     8
24.2092     4
24.2217     6
24.2342     1
24.2467     5
24.2592     6
24.2717     7
24.2842     4
24.2967     6
24.3092     6
24.3217     2
24.3342     4
24.3467     6
24.3593     3
24.3718     9
24.3843     7
24.3968     5
24.4093     5
24.4218     4
24.4343     7
24.4468     4
24.4593     6
24.4718     3
24.4843     7
24.4968     5
24.5093     6
24.5218     5
24.5344     7
24.5469     4
24.5594     5
24.5719     5
24.5844     5
24.5969     7
24.6094     8
24.6219     2
24.6344     6
24.6469     4
24.6594     4
24.6719     8
24.6844     6
24.6969     7
24.7095     9
 24.722     3
24.7345     3
 24.747     6
24.7595     5
 24.772     5
24.7845     5
 24.797     7
24.8095     6
 24.822     2
24.8345     4
 24.847     6
24.8595     6
24.8721     4
24.8846     5
24.8971     4
24.9096     5
24.9221     5
24.9346     6
24.9471     5
24.9596     9
24.9721     9
24.9846     3
24.9971     6
25.0096     5
25.0221     5
25.0346     4
25.0472     6
25.0597     5
25.0722     6
25.0847     7
25.0972     7
25.1097     4
25.1222     6
25.1347     5
25.1472     7
25.1597     7
25.1722     6
25.1847     7
25.1972     7
25.2097     2
25.2223     4
25.2348     5
25.2473    10
25.2598     5
25.2723     4
25.2848    11
25.2973     8
25.3098     5
25.3223     3
25.3348     6
25.3473     5
25.3598     9
25.3723     4
25.3848     7
25.3974     5
25.4099     8
25.4224     3
25.4349     3
25.4474     6
25.4599     8
25.4724     5
25.4849    11
25.4974     4
25.5099     5
25.5224     8
25.5349     5
25.5474     2
  25.56     4
25.5725     4
 25.585     7
25.5975     3
  25.61     3
25.6225     5
 25.635     5
25.6475     4
  25.66     4
25.6725     4
 25.685     3
25.6975     2
  25.71     7
25.7225     2
25.7351     6
25.7476     1
25.7601     5
25.7726     3
25.7851     2
25.7976     3
25.8101     3
25.8226     5
25.8351     6
25.8476     4
25.8601     2
25.8726     2
25.8851     3
25.8976     7
25.9102     5
25.9227     6
25.9352     9
25.9477     6
25.9602     7
25.9727     4
25.9852     5
25.9977     7
26.0102     3
26.0227     9
26.0352     4
26.0477     5
26.0602     3
26.0727     3
26.0853     7
26.0978     5
26.1103     4
26.1228     8
26.1353     8
26.1478    10
26.1603     6
26.1728     3
26.1853     8
26.1978     5
26.2103     7
26.2228     3
26.2353     6
26.2479     4
26.2604     8
26.2729     4
26.2854     3
26.2979     8
26.3104     5
26.3229     5
26.3354     4
26.3479     7
26.3604     1
26.3729     3
26.3854     8
26.3979     3
26.4104     2
 26.423     1
26.4355     5
 26.448     3
26.4605     3
 26.473     4
26.4855     7
 26.498     2
26.5105     6
 26.523     4
26.5355     1
 26.548     3
26.5605     2
 26.573     4
26.5855     1
26.5981     5
26.6106     4
26.6231     5
26.6356     4
26.6481     5
26.6606     3
26.6731     3
26.6856     3
26.6981     5
26.7106     9
26.7231     3
26.7356     3
26.7481    10
26.7606     5
26.7732     6
26.7857     8
26.7982     1
26.8107     3
26.8232     2
26.8357     0
26.8482     5
26.8607     2
26.8732     0
26.8857     7
26.8982     1
26.9107     1
26.9232     1
26.9358     2
26.9483     5
26.9608     1
26.9733     4
26.9858     3
26.9983     3
27.0108     4
27.0233     4
27.0358     5
27.0483     5
27.0608     4
27.0733     3
27.0858     8
27.0983     4
27.1109     3
27.1234     3
27.1359     5
27.1484     0
27.1609     2
27.1734     4
27.1859     3
27.1984     4
27.2109     8
27.2234     3
27.2359     4
27.2484     3
27.2609     3
27.2734     4
 27.286     5
27.2985     2
 27.311     1
27.3235     5
 27.336     5
27.3485     2
 27.361     4
27.3735     4
 27.386     4
27.3985     6
 27.411     3
27.4235     2
 27.436     3
27.4485     2
27.4611     5
27.4736     3
27.4861     9
27.4986     7
27.5111     6
27.5236     3
27.5361     3
27.5486     6
27.5611     5
27.5736     6
27.5861     3
27.5986     6
27.6111     1
27.6237     4
27.6362     3
27.6487     1
27.6612     6
27.6737     0
27.6862     6
27.6987     4
27.7112     7
27.7237     0
27.7362     2
27.7487     2
27.7612     5
27.7737     3
27.7862     3
27.7988     5
27.8113     3
27.8238     2
27.8363     3
27.8488     2
27.8613     4
27.8738     3
27.8863     3
27.8988     2
27.9113     3
27.9238     3
27.9363     6
27.9488     3
27.9613     3
27.9739     1
27.9864     1
27.9989     3
28.0114     1
28.0239     2
28.0364     3
28.0489     1
28.0614     3
28.0739     4
28.0864     5
28.0989     4
28.1114     3
28.1239     2
28.1364     0
 28.149     4
28.1615     1
 28.174     4
28.1865     4
 28.199     2
28.2115     4
 28.224     1
28.2365     0
 28.249     2
28.2615     3
 28.274     3
28.2865     4
 28.299     3
28.3116     2
28.3241     4
28.3366     4
28.3491     3
28.3616     4
28.3741     8
28.3866     3
28.3991     7
28.4116     1
28.4241     4
28.4366     3
28.4491     7
28.4616     8
28.4741     4
28.4867     2
28.4992     2
28.5117     2
28.5242     3
28.5367     1
28.5492     3
28.5617     5
28.5742     3
28.5867     3
28.5992     3
28.6117     3
28.6242     3
28.6367     6
28.6492     3
28.6618     4
28.6743     4
28.6868     3
28.6993     4
28.7118     6
28.7243     2
28.7368     8
28.7493     4
28.7618     3
28.7743     2
28.7868     1
28.7993     3
28.8118     4
28.8243     4
28.8369     4
28.8494     5
28.8619     4
28.8744     3
28.8869     2
28.8994     3
28.9119     3
28.9244     0
28.9369     3
28.9494     0
28.9619     2
28.9744     3
28.9869     2
28.9995     6
 29.012     3
29.0245     3
 29.037     5
29.0495     2
 29.062     3
29.0745     0
 29.087     4
29.0995     1
 29.112     5
29.1245     0
 29.137     3
29.1495     4
 29.162     5
29.1746     0
29.1871     0
29.1996     2
29.2121     3
29.2246     5
29.2371     0
29.2496     1
29.2621     5
29.2746     0
29.2871     0
29.2996     0
29.3121     1
29.3246     4
29.3371     2
29.3497     4
29.3622     2
29.3747     2
29.3872     2
29.3997     1
29.4122     2
29.4247     2
29.4372     2
29.4497     1
29.4622     3
29.4747     1
29.4872     2
29.4997     2
29.5123     1
29.5248     5
29.5373     1
29.5498     3
29.5623     3
29.5748     5
29.5873     7
29.5998     1
29.6123     5
29.6248     2
29.6373     0
29.6498     4
29.6623     2
29.6748     2
29.6874     3
29.6999     7
29.7124     3
29.7249     4
29.7374     4
29.7499    10
29.7624     2
29.7749     4
29.7874     4
29.7999     4
29.8124     2
29.8249     1
29.8374     6
29.8499     3
29.8625     2
 29.875     2
29.8875     3
   29.9     2
29.9125     4
 29.925     2
29.9375     3
  29.95     0
29.9625     3
 29.975     1
29.9875     1
     30     2
30.0125     3
 30.025     3
30.0376     1
30.0501     1
30.0626     4
30.0751     4
30.0876     3
30.1001     1
30.1126     6
30.1251     2
30.1376     4
30.1501     1
30.1626     1
30.1751     3
30.1876     3
30.2002     2
30.2127     2
30.2252     4
30.2377     1
30.2502     3
30.2627     6
30.2752     4
30.2877     2
30.3002     0
30.3127     3
30.3252     1
30.3377     3
30.3502     1
30.3627     1
30.3753     0
30.3878     1
30.4003     1
30.4128     2
30.4253     2
30.4378     3
30.4503     3
30.4628     3
30.4753     0
30.4878     4
30.5003     3
30.5128     2
30.5253     6
30.5378     3
30.5504     2
30.5629     0
30.5754     1
30.5879     0
30.6004     2
30.6129     1
30.6254     3
30.6379     1
30.6504     2
30.6629     1
30.6754     3
30.6879     3
30.7004     0
30.7129     1
30.7255     4
 30.738     6
30.7505     3
 30.763     7
30.7755     1
 30.788     2
30.8005     0
 30.813     2
30.8255     2
 30.838     0
30.8505     2
 30.863     3
30.8755     0
30.8881     2
30.9006     2
30.9131     4
30.9256     1
30.9381     1
30.9506     3
30.9631     0
30.9756     2
30.9881     2
31.0006     2
31.0131     2
31.0256     1
31.0381     2
31.0506     2
31.0632     2
31.0757     2
31.0882     5
31.1007     2
31.1132     1
31.1257     1
31.1382     2
31.1507     3
31.1632     0
31.1757     1
31.1882     3
31.2007     4
31.2132     1
31.2257     0
31.2383     1
31.2508     2
31.2633     4
31.2758     0
31.2883     1
31.3008     6
31.3133     0
31.3258     1
31.3383     3
31.3508     5
31.3633     1
31.3758     6
31.3883     3
31.4008     1
31.4134     0
31.4259     1
31.4384     0
31.4509     3
31.4634     0
31.4759     2
31.4884     0
31.5009     2
31.5134     0
31.5259     4
31.5384     1
31.5509     0
31.5634     0
 31.576     1
31.5885     2
 31.601     1
31.6135     0
 31.626     3
31.6385     4
 31.651     4
31.6635     3
 31.676     0
31.6885     7
 31.701     0
31.7135     2
 31.726     3
31.7385     2
31.7511     1
31.7636     2
31.7761     3
31.7886     0
31.8011     0
31.8136     0
31.8261     1
31.8386     1
31.8511     4
31.8636     1
31.8761     1
31.8886     0
31.9011     4
31.9136     1
31.9262     1
31.9387     0
31.9512     2
31.9637     1
31.9762     2
31.9887     2
32.0012     5
32.0137     1
32.0262     0
32.0387     1
32.0512     2
32.0637     0
32.0762     2
32.0887     2
32.1013     1
32.1138     3
32.1263     1
32.1388     3
32.1513     0
32.1638     0
32.1763     1
32.1888     1
32.2013     1
32.2138     0
32.2263     1
32.2388     1
32.2513     1
32.2639     1
32.2764     1
32.2889     0
32.3014     4
32.3139     1
32.3264     3
32.3389     4
32.3514     0
32.3639     2
32.3764     1
32.3889     0
32.4014     1
32.4139     3
32.4264     0
 32.439     2
32.4515     1
 32.464     1
32.4765     1
 32.489     1
32.5015     1
 32.514     0
32.5265     0
 32.539     3
32.5515     1
 32.564     2
32.5765     2
 32.589     2
32.6015     2
32.6141     1
32.6266     1
32.6391     3
32.6516     1
32.6641     1
32.6766     0
32.6891     3
32.7016     0
32.7141     1
32.7266     1
32.7391     1
32.7516     1
32.7641     2
32.7766     3
32.7892     3
32.8017     0
32.8142     1
32.8267     1
32.8392     3
32.8517     2
32.8642     1
32.8767     1
32.8892     1
32.9017     0
32.9142     2
32.9267     1
32.9392     2
32.9518     2
32.9643     2
32.9768     4
32.9893     2
33.0018     2
33.0143     5
33.0268     2
33.0393     2
33.0518     1
33.0643     0
33.0768     0
33.0893     1
33.1018     3
33.1143     0
33.1269     1
33.1394     1
33.1519     0
33.1644     1
33.1769     2
33.1894     2
33.2019     3
33.2144     4
33.2269     2
33.2394     0
33.2519     1
33.2644     2
33.2769     5
33.2894     1
 33.302     1
33.3145     1
 33.327     2
33.3395     4
 33.352     0
33.3645     0
 33.377     0
33.3895     4
 33.402     0
33.4145     0
 33.427     1
33.4395     0
 33.452     2
33.4645     2
33.4771     2
33.4896     1
33.5021     1
33.5146     1
33.5271     0
33.5396     1
33.5521     2
33.5646     0
33.5771     3
33.5896     1
33.6021     0
33.6146     0
33.6271     1
33.6397     1
33.6522     0
33.6647     4
33.6772     2
33.6897     1
33.7022     1
33.7147     1
33.7272     1
33.7397     0
33.7522     0
33.7647     1
33.7772     1
33.7897     0
33.8022     0
33.8148     1
33.8273     2
33.8398     2
33.8523     1
33.8648     1
33.8773     2
33.8898     1
33.9023     1
33.9148     0
33.9273     2
33.9398     3
33.9523     1
33.9648     2
33.9773     1
33.9899     1
34.0024     1
34.0149     1
34.0274     0
34.0399     1
34.0524     2
34.0649     1
34.0774     1
34.0899     3
34.1024     1
34.1149     2
34.1274     1
34.1399     1
34.1524     0
 34.165     2
34.1775     2
  34.19     1
34.2025     2
 34.215     4
34.2275     1
  34.24     0
34.2525     1
 34.265     1
34.2775     1
  34.29     0
34.3025     1
 34.315     1
34.3276     0
34.3401     2
34.3526     2
34.3651     1
34.3776     2
34.3901     3
34.4026     0
34.4151     0
34.4276     1
34.4401     2
34.4526     1
34.4651     2
34.4776     2
34.4901     1
34.5027     2
34.5152     1
34.5277     2
34.5402     2
34.5527     1
34.5652     1
34.5777     0
34.5902     1
34.6027     1
34.6152     0
34.6277     0
34.6402     2
34.6527     1
34.6652     0
34.6778     1
34.6903     1
34.7028     2
34.7153     0
34.7278     0
34.7403     1
34.7528     0
34.7653     3
34.7778     1
34.7903     0
34.8028     2
34.8153     1
34.8278     0
34.8403     0
34.8529     3
34.8654     0
34.8779     1
34.8904     2
34.9029     1
34.9154     2
34.9279     2
34.9404     1
34.9529     0
34.9654     1
34.9779     0
34.9904     1
35.0029     0
35.0155     1
 35.028     2
35.0405     0
 35.053     2
35.0655     2
 35.078     1
35.0905     1
 35.103     1
35.1155     1
 35.128     2
35.1405     1
 35.153     0
35.1655     2
 35.178     0
35.1906     1
35.2031     0
35.2156     3
35.2281     1
35.2406     1
35.2531     1
35.2656     1
35.2781     6
35.2906     2
35.3031     3
35.3156     1
35.3281     1
35.3406     2
35.3531     0
35.3657     4
35.3782     3
35.3907     1
35.4032     1
35.4157     2
35.4282     1
35.4407     0
35.4532     0
35.4657     1
35.4782     1
35.4907     0
35.5032     0
35.5157     0
35.5282     2
35.5408     0
35.5533     2
35.5658     1
35.5783     1
35.5908     1
35.6033     1
35.6158     1
35.6283     1
35.6408     2
35.6533     2
35.6658     0
35.6783     2
35.6908     1
35.7034     1
35.7159     0
35.7284     2
35.7409     0
35.7534     1
35.7659     0
35.7784     0
35.7909     2
35.8034     0
35.8159     0
35.8284     1
35.8409     1
35.8534     2
35.8659     3
35.8785     0
 35.891     1
35.9035     0
 35.916     0
35.9285     1
 35.941     1
35.9535     1
 35.966     1
35.9785     0
 35.991     0
36.0035     1
 36.016     1
36.0285     2
 36.041     0
36.0536     0
36.0661     2
36.0786     0
36.0911     1
36.1036     1
36.1161     0
36.1286     0
36.1411     1
36.1536     0
36.1661     0
36.1786     0
36.1911     0
36.2036     3
36.2161     0
36.2287     0
36.2412     4
36.2537     2
36.2662     2
36.2787     1
36.2912     0
36.3037     1
36.3162     0
36.3287     3
36.3412     2
36.3537     1
36.3662     1
36.3787     0
36.3913     1
36.4038     1
36.4163     2
36.4288     0
36.4413     1
36.4538     0
36.4663     1
36.4788     1
36.4913     0
36.5038     1
36.5163     0
36.5288     0
36.5413     0
36.5538     1
36.5664     0
36.5789     2
36.5914     0
36.6039     0
36.6164     0
36.6289     1
36.6414     2
36.6539     0
36.6664     0
36.6789     0
36.6914     1
36.7039     0
36.7164     0
36.7289     0
36.7415     2
 36.754     0
36.7665     3
 36.779     0
36.7915     1
 36.804     1
36.8165     0
 36.829     0
36.8415     2
 36.854     0
36.8665     0
 36.879     1
36.8915     1
 36.904     2
36.9166     3
36.9291     0
36.9416     0
36.9541     1
36.9666     1
36.9791     1
36.9916     0
37.0041     0
37.0166     0
37.0291     1
37.0416     0
37.0541     0
37.0666     0
37.0792     0
37.0917     0
37.1042     0
37.1167     2
37.1292     0
37.1417     1
37.1542     0
37.1667     0
37.1792     1
37.1917     0
37.2042     1
37.2167     0
37.2292     0
37.2417     2
37.2543     1
37.2668     0
37.2793     1
37.2918     0
37.3043     0
37.3168     0
37.3293     0
37.3418     0
37.3543     0
37.3668     1
37.3793     1
37.3918     1
37.4043     1
37.4168     1
37.4294     0
37.4419     1
37.4544     1
37.4669     2
37.4794     1
37.4919     1
37.5044     0
37.5169     2
37.5294     1
37.5419     1
37.5544     0
37.5669     0
37.5794     1
37.5919     0
37.6045     0
 37.617     0
37.6295     0
 37.642     3
37.6545     1
 37.667     1
37.6795     0
 37.692     2
37.7045     0
 37.717     1
37.7295     2
 37.742     1
37.7545     0
37.7671     0
37.7796     0
37.7921     2
37.8046     1
37.8171     1
37.8296     0
37.8421     1
37.8546     1
37.8671     0
37.8796     2
37.8921     1
37.9046     1
37.9171     0
37.9296     0
37.9422     0
37.9547     0
37.9672     0
37.9797     0
37.9922     1
38.0047     0
38.0172     0
38.0297     1
38.0422     1
38.0547     0
38.0672     1
38.0797     0
38.0922     0
38.1047     1
38.1173     0
38.1298     0
38.1423     0
38.1548     0
38.1673     0
38.1798     0
38.1923     0
38.2048     0
38.2173     0
38.2298     0
38.2423     1
38.2548     0
38.2673     0
38.2798     0
38.2924     1
38.3049     1
38.3174     0
38.3299     1
38.3424     1
38.3549     1
38.3674     0
38.3799     0
38.3924     0
38.4049     0
38.4174     0
38.4299     1
38.4424     0
 38.455     1
38.4675     0
  38.48     0
38.4925     2
 38.505     0
38.5175     0
  38.53     3
38.5425     0
 38.555     0
38.5675     0
  38.58     0
38.5925     1
 38.605     0
38.6175     1
38.6301     0
38.6426     1
38.6551     0
38.6676     0
38.6801     0
38.6926     0
38.7051     0
38.7176     0
38.7301     0
38.7426     0
38.7551     1
38.7676     1
38.7801     0
38.7926     0
38.8052     0
38.8177     0
38.8302     0
38.8427     0
38.8552     2
38.8677     0
38.8802     1
38.8927     0
38.9052     0
38.9177     0
38.9302     0
38.9427     1
38.9552     0
38.9677     0
38.9803     0
38.9928     0
39.0053     0
39.0178     0
39.0303     0
39.0428     1
39.0553     0
39.0678     0
39.0803     0
39.0928     0
39.1053     1
39.1178     1
39.1303     1
39.1429     0
39.1554     0
39.1679     1
39.1804     0
39.1929     0
39.2054     0
39.2179     2
39.2304     1
39.2429     0
39.2554     0
39.2679     0
39.2804     1
39.2929     0
39.3054     0
 39.318     1
39.3305     0
 39.343     0
39.3555     0
 39.368     0
39.3805     0
 39.393     0
39.4055     1
 39.418     0
39.4305     0
 39.443     0
39.4555     0
 39.468     0
39.4805     0
39.4931     0
39.5056     0
39.5181     0
39.5306     0
39.5431     0
39.5556     1
39.5681     0
39.5806     0
39.5931     0
39.6056     0
39.6181     0
39.6306     0
39.6431     1
39.6556     0
39.6682     0
39.6807     1
39.6932     3
39.7057     0
39.7182     2
39.7307     0
39.7432     1
39.7557     0
39.7682     1
39.7807     0
39.7932     0
39.8057     0
39.8182     1
39.8308     0
39.8433     0
39.8558     2
39.8683     1
39.8808     0
39.8933     2
39.9058     0
39.9183     0
39.9308     1
39.9433     1
39.9558     1
39.9683     0
39.9808     1
39.9933     0
40.0059     0
40.0184     0
40.0309     1
40.0434     0
40.0559     0
40.0684     0
40.0809     0
40.0934     0
40.1059     0
40.1184     1
40.1309     0
40.1434     0
40.1559     0
40.1684     0
 40.181     0
40.1935     1
 40.206     0
40.2185     0
 40.231     0
40.2435     1
 40.256     0
40.2685     0
 40.281     0
40.2935     1
 40.306     0
40.3185     0
 40.331     1
40.3435     0
40.3561     0
40.3686     0
40.3811     0
40.3936     0
40.4061     0
40.4186     0
40.4311     0
40.4436     0
40.4561     0
40.4686     1
40.4811     0
40.4936     0
40.5061     1
40.5187     1
40.5312     0
40.5437     0
40.5562     0
40.5687     0
40.5812     1
40.5937     0
40.6062     0
40.6187     0
40.6312     0
40.6437     0
40.6562     0
40.6687     0
40.6812     0
40.6938     0
40.7063     0
40.7188     0
40.7313     0
40.7438     1
40.7563     0
40.7688     0
40.7813     0
40.7938     0
40.8063     0
40.8188     0
40.8313     0
40.8438     0
40.8563     0
40.8689     0
40.8814     0
40.8939     0
40.9064     1
40.9189     0
40.9314     0
40.9439     0
40.9564     0
40.9689     0
40.9814     0
40.9939     0
41.0064     0
41.0189     0
41.0314     0
 41.044     1
41.0565     0
 41.069     0
41.0815     0
 41.094     0
41.1065     0
 41.119     0
41.1315     0
 41.144     0
41.1565     1
 41.169     0
41.1815     1
 41.194     0
41.2066     0
41.2191     0
41.2316     0
41.2441     0
41.2566     0
41.2691     0
41.2816     0
41.2941     0
41.3066     0
41.3191     1
41.3316     0
41.3441     0
41.3566     0
41.3691     1
41.3817     1
41.3942     0
41.4067     1
41.4192     0
41.4317     0
41.4442     0
41.4567     0
41.4692     0
41.4817     0
41.4942     0
41.5067     1
41.5192     0
41.5317     0
41.5442     0
41.5568     0
41.5693     0
41.5818     0
41.5943     0
41.6068     0
41.6193     0
41.6318     0
41.6443     0
41.6568     0
41.6693     0
41.6818     0
41.6943     0
41.7068     0
41.7193     0
41.7319     0
41.7444     0
41.7569     0
41.7694     0
41.7819     0
41.7944     0
41.8069     0
41.8194     0
41.8319     0
41.8444     0
41.8569     0
41.8694     0
41.8819     0
41.8945     0
 41.907     0
41.9195     0
 41.932     0
41.9445     0
 41.957     1
41.9695     0
 41.982     0
41.9945     0
 42.007     0
42.0195     0
 42.032     0
42.0445     1
 42.057     0
42.0696     0
42.0821     1
42.0946     0
42.1071     0
42.1196     0
42.1321     2
42.1446     0
42.1571     0
42.1696     0
42.1821     0
42.1946     0
42.2071     0
42.2196     0
42.2321     0
42.2447     0
42.2572     1
42.2697     0
42.2822     0
42.2947     0
42.3072     1
42.3197     0
42.3322     0
42.3447     0
42.3572     0
42.3697     0
42.3822     1
42.3947     0
42.4072     0
42.4198     0
42.4323     0
42.4448     0
42.4573     0
42.4698     0
42.4823     0
42.4948     0
42.5073     0
42.5198     0
42.5323     0
42.5448     0
42.5573     0
42.5698     0
42.5824     0
42.5949     0
42.6074     0
42.6199     0
42.6324     1
42.6449     0
42.6574     0
42.6699     0
42.6824     0
42.6949     0
42.7074     0
42.7199     0
42.7324     0
42.7449     0
42.7575     0
  42.77     1
42.7825     0
 42.795     1
42.8075     0
  42.82     0
42.8325     0
 42.845     0
42.8575     0
  42.87     0
42.8825     0
 42.895     0
42.9075     0
  42.92     0
42.9326     0
42.9451     0
42.9576     0
42.9701     0
42.9826     0
42.9951     0
43.0076     0
43.0201     0
43.0326     0
43.0451     0
43.0576     0
43.0701     0
43.0826     0
43.0951     0
43.1077     1
43.1202     0
43.1327     0
43.1452     0
43.1577     0
43.1702     0
43.1827     0
43.1952     0
43.2077     1
43.2202     0
43.2327     0
43.2452     0
43.2577     0
43.2703     0
43.2828     0
43.2953     0
43.3078     0
43.3203     0
43.3328     0
43.3453     0
43.3578     0
43.3703     0
43.3828     0
43.3953     0
43.4078     0
43.4203     0
43.4328     0
43.4454     0
43.4579     0
43.4704     0
43.4829     0
43.4954     0
43.5079     0
43.5204     0
43.5329     0
43.5454     0
43.5579     0
43.5704     0
43.5829     0
43.5954     0
43.6079     0
43.6205     0
 43.633     0
43.6455     0
 43.658     0
43.6705     0
 43.683     0
43.6955     0
 43.708     0
43.7205     0
 43.733     0
43.7455     0
 43.758     0
43.7705     0
 43.783     0
43.7956     0
43.8081     0
43.8206     0
43.8331     0
43.8456     0
43.8581     0
43.8706     0
43.8831     0
43.8956     0
43.9081     0
43.9206     0
43.9331     0
43.9456     0
43.9582     2
43.9707     0
43.9832     0
43.9957     0
44.0082     0
44.0207     0
44.0332     0
44.0457     0
44.0582     0
44.0707     1
44.0832     0
44.0957     1
44.1082     0
44.1207     0
44.1333     0
44.1458     0
44.1583     0
44.1708     0
44.1833     1
44.1958     0
44.2083     0
44.2208     0
44.2333     0
44.2458     0
44.2583     0
44.2708     0
44.2833     0
44.2958     0
44.3084     0
44.3209     1
44.3334     0
44.3459     0
44.3584     0
44.3709     1
44.3834     0
44.3959     1
44.4084     0
44.4209     0
44.4334     0
44.4459     0
44.4584     0
44.4709     0
44.4835     0
 44.496     0
44.5085     0
 44.521     0
44.5335     0
 44.546     0
44.5585     1
 44.571     0
44.5835     0
 44.596     0
44.6085     0
 44.621     0
44.6335     0
44.6461     0
44.6586     0
44.6711     0
44.6836     0
44.6961     0
44.7086     0
44.7211     0
44.7336     0
44.7461     0
44.7586     0
44.7711     0
44.7836     0
44.7961     0
44.8086     0
44.8212     0
44.8337     0
44.8462     0
44.8587     0
44.8712     0
44.8837     0
44.8962     0
44.9087     0
44.9212     0
44.9337     0
44.9462     0
44.9587     0
44.9712     0
44.9837     0
44.9963     0
45.0088     0
45.0213     0
45.0338     0
45.0463     0
45.0588     0
45.0713     0
45.0838     0
45.0963     0
45.1088     0
45.1213     0
45.1338     0
45.1463     0
45.1588     0
45.1714     0
45.1839     0
45.1964     0
45.2089     0
45.2214     0
45.2339     0
45.2464     0
45.2589     0
45.2714     0
45.2839     0
45.2964     0
45.3089     0
45.3214     0
 45.334     0
45.3465     0
 45.359     0
45.3715     0
 45.384     0
45.3965     0
 45.409     0
45.4215     0
 45.434     0
45.4465     0
 45.459     0
45.4715     0
 45.484     0
45.4965     1
45.5091     0
45.5216     0
45.5341     0
45.5466     0
45.5591     0
45.5716     0
45.5841     0
45.5966     0
45.6091     0
45.6216     0
45.6341     0
45.6466     0
45.6591     0
45.6716     0
45.6842     0
45.6967     0
45.7092     0
45.7217     0
45.7342     0
45.7467     0
45.7592     0
45.7717     0
45.7842     0
45.7967     0
45.8092     0
45.8217     0
45.8342     0
45.8467     0
45.8593     0
45.8718     0
45.8843     0
45.8968     0
45.9093     0
45.9218     0
45.9343     0
45.9468     0
45.9593     0
45.9718     0
45.9843     0
45.9968     0
46.0093     0
46.0219     1
46.0344     0
46.0469     0
46.0594     0
46.0719     0
46.0844     0
46.0969     0
46.1094     0
46.1219     0
46.1344     0
46.1469     0
46.1594     0
46.1719     0
46.1844     0
 46.197     0
46.2095     0
 46.222     0
46.2345     0
 46.247     0
46.2595     0
 46.272     0
46.2845     0
 46.297     0
46.3095     0
 46.322     0
46.3345     0
 46.347     0
46.3595     0
46.3721     0
46.3846     0
46.3971     0
46.4096     0
46.4221     0
46.4346     0
46.4471     0
46.4596     0
46.4721     0
46.4846     0
46.4971     0
46.5096     0
46.5221     0
46.5346     0
46.5472     0
46.5597     0
46.5722     0
46.5847     0
46.5972     0
46.6097     0
46.6222     0
46.6347     0
46.6472     0
46.6597     0
46.6722     0
46.6847     0
46.6972     0
46.7098     0
46.7223     0
46.7348     0
46.7473     0
46.7598     0
46.7723     0
46.7848     0
46.7973     0
46.8098     0
46.8223     0
46.8348     0
46.8473     0
46.8598     0
46.8723     0
46.8849     0
46.8974     0
46.9099     0
46.9224     0
46.9349     0
46.9474     0
46.9599     0
46.9724     0
46.9849     0
46.9974     0
47.0099     0
47.0224     0
47.0349     0
47.0474     0
  47.06     0
47.0725     0
 47.085     0
47.0975     0
  47.11     0
47.1225     0
 47.135     0
47.1475     0
  47.16     0
47.1725     0
 47.185     0
47.1975     0
  47.21     0
47.2225     0
47.2351     0
47.2476     0
47.2601     0
47.2726     0
47.2851     0
47.2976     0
47.3101     0
47.3226     0
47.3351     0
47.3476     0
47.3601     0
47.3726     0
47.3851     0
47.3977     0
47.4102     0
47.4227     0
47.4352     0
47.4477     0
47.4602     0
47.4727     0
47.4852     0
47.4977     0
47.5102     0
47.5227     0
47.5352     0
47.5477     0
47.5602     0
47.5728     0
47.5853     0
47.5978     0
47.6103     0
47.6228     0
47.6353     0
47.6478     0
47.6603     0
47.6728     0
47.6853     0
47.6978     0
47.7103     0
47.7228     0
47.7353     0
47.7479     0
47.7604     0
47.7729     0
47.7854     0
47.7979     0
47.8104     0
47.8229     0
47.8354     0
47.8479     0
47.8604     0
47.8729     0
47.8854     0
47.8979     0
47.9104     0
 47.923     0
47.9355     0
 47.948     0
47.9605     0
 47.973     0
47.9855     0
 47.998     0
48.0105     0
 48.023     0
48.0355     0
 48.048     0
48.0605     0
 48.073     0
48.0856     0
48.0981     0
48.1106     0
48.1231     0
48.1356     0
48.1481     0
48.1606     0
48.1731     0
48.1856     0
48.1981     0
48.2106     0
48.2231     0
48.2356     0
48.2481     0
48.2607     0
48.2732     0
48.2857     0
48.2982     0
48.3107     0
48.3232     0
48.3357     0
48.3482     0
48.3607     0
48.3732     0
48.3857     0
48.3982     0
48.4107     0
48.4232     0
48.4358     1
48.4483     0
48.4608     0
48.4733     0
48.4858     0
48.4983     0
48.5108     0
48.5233     0
48.5358     0
48.5483     0
48.5608     0
48.5733     0
48.5858     0
48.5983     0
48.6109     0
48.6234     0
48.6359     0
48.6484     0
48.6609     0
48.6734     0
48.6859     0
48.6984     0
48.7109     0
48.7234     0
48.7359     0
48.7484     0
48.7609     0
48.7735     0
 48.786     0
48.7985     0
 48.811     0
48.8235     0
 48.836     0
48.8485     0
 48.861     0
48.8735     0
 48.886     0
48.8985     0
 48.911     0
48.9235     0
 48.936     0
48.9486     0
48.9611     0
48.9736     0
48.9861     0
48.9986     0
49.0111     0
49.0236     0
49.0361     0
49.0486     0
49.0611     0
49.0736     0
49.0861     0
49.0986     0
49.1111     0
49.1237     0
49.1362     0
49.1487     0
49.1612     0
49.1737     0
49.1862     0
49.1987     0
49.2112     0
49.2237     0
49.2362     0
49.2487     0
49.2612     0
49.2737     0
49.2862     0
49.2988     0
49.3113     0
49.3238     0
49.3363     0
49.3488     0
49.3613     0
49.3738     0
49.3863     0
49.3988     0
49.4113     0
49.4238     0
49.4363     0
49.4488     0
49.4614     0
49.4739     0
49.4864     0
49.4989     0
49.5114     0
49.5239     0
49.5364     0
49.5489     0
49.5614     0
49.5739     0
49.5864     0
49.5989     0
49.6114     0
49.6239     0
49.6365     0
 49.649     0
49.6615     0
 49.674     0
49.6865     0
 49.699     0
49.7115     0
 49.724     0
49.7365     0
 49.749     0
49.7615     0
 49.774     0
49.7865     0
 49.799     0
49.8116     0
49.8241     0
49.8366     0
49.8491     0
49.8616     0
49.8741     0
49.8866     0
49.8991     0
49.9116     0
49.9241     0
49.9366     0
49.9491     0
49.9616     0
49.9741     0
49.9867     0
49.9992     0
50.0117     0
50.0242     0
