RÖNTEC GmbH Berlin, Germany
Quantax 1.2

Date: 3/3/2015 12:26:31 PM
Real time: 61061
Life time: 60003
Pulse density: 7506


Detector type: XFLASH 3001
Window type: 
Detector thickness: 0.45
Si dead layer:0

Calibration, lin.: 12.507
Calibration, abs.: -1193.107
Mn FWHM: 142.37
Fano factor: 0.105
Channels: 4096

Energy Counts
-1.1931     0
-1.1806     0
-1.1681     0
-1.1556     0
-1.1431     0
-1.1306     0
-1.1181     0
-1.1056     0
 -1.093     0
-1.0805     0
 -1.068     0
-1.0555     0
 -1.043     0
-1.0305     0
 -1.018     0
-1.0055     0
 -0.993     0
-0.9805     0
 -0.968     0
-0.9555     0
 -0.943     0
-0.9305     0
-0.9179     0
-0.9054     0
-0.8929     0
-0.8804     0
-0.8679     0
-0.8554     0
-0.8429     0
-0.8304     0
-0.8179     0
-0.8054     0
-0.7929     0
-0.7804     0
-0.7679     0
-0.7554     0
-0.7428     0
-0.7303     0
-0.7178     0
-0.7053     0
-0.6928     0
-0.6803     0
-0.6678     0
-0.6553     0
-0.6428     0
-0.6303     0
-0.6178     0
-0.6053     0
-0.5928     0
-0.5803     0
-0.5677     0
-0.5552     0
-0.5427     0
-0.5302     0
-0.5177     0
-0.5052     0
-0.4927     0
-0.4802     0
-0.4677     0
-0.4552     0
-0.4427     0
-0.4302     0
-0.4177     0
-0.4051     0
-0.3926     0
-0.3801     0
-0.3676     0
-0.3551     0
-0.3426     0
-0.3301     0
-0.3176     0
-0.3051     0
-0.2926     0
-0.2801     0
-0.2676     0
-0.2551     0
-0.2426     0
  -0.23     0
-0.2175     0
 -0.205     0
-0.1925     0
  -0.18     0
-0.1675     1
 -0.155     0
-0.1425     4
  -0.13    23
-0.1175    74
 -0.105   265
-0.0925   873
  -0.08  2518
-0.0675  6056
-0.0549 13514
-0.0424 25464
-0.0299 42807
-0.0174 61537
-0.0049 78247
 0.0076 87385
 0.0201 84666
 0.0326 72146
 0.0451 52972
 0.0576 34534
 0.0701 19474
 0.0826  9646
 0.0951  4168
 0.1076  1499
 0.1202   518
 0.1327   143
 0.1452    49
 0.1577     8
 0.1702     5
 0.1827     1
 0.1952     2
 0.2077     2
 0.2202     3
 0.2327     0
 0.2452     0
 0.2577     0
 0.2702     1
 0.2828     0
 0.2953     0
 0.3078     0
 0.3203     0
 0.3328     0
 0.3453     0
 0.3578     0
 0.3703     0
 0.3828     0
 0.3953     0
 0.4078     0
 0.4203     0
 0.4328     6
 0.4453    22
 0.4579    41
 0.4704    61
 0.4829    54
 0.4954    49
 0.5079    59
 0.5204    52
 0.5329    55
 0.5454    57
 0.5579    45
 0.5704    45
 0.5829    63
 0.5954    63
 0.6079    61
 0.6204    49
  0.633    50
 0.6455    53
  0.658    50
 0.6705    39
  0.683    59
 0.6955    44
  0.708    51
 0.7205    43
  0.733    41
 0.7455    35
  0.758    32
 0.7705    44
  0.783    35
 0.7955    37
 0.8081    33
 0.8206    30
 0.8331    33
 0.8456    19
 0.8581    33
 0.8706    27
 0.8831    38
 0.8956    29
 0.9081    28
 0.9206    31
 0.9331    25
 0.9456    22
 0.9581    27
 0.9707    28
 0.9832    19
 0.9957    27
 1.0082    39
 1.0207    31
 1.0332    22
 1.0457    31
 1.0582    30
 1.0707    26
 1.0832    31
 1.0957    28
 1.1082    28
 1.1207    19
 1.1332    19
 1.1458    24
 1.1583    33
 1.1708    34
 1.1833    22
 1.1958    18
 1.2083    25
 1.2208    29
 1.2333    24
 1.2458    24
 1.2583    22
 1.2708    25
 1.2833    20
 1.2958    20
 1.3083    32
 1.3209    25
 1.3334    21
 1.3459    21
 1.3584    17
 1.3709    17
 1.3834    26
 1.3959    18
 1.4084    21
 1.4209    22
 1.4334    25
 1.4459    22
 1.4584    21
 1.4709    30
 1.4834    29
  1.496    21
 1.5085    27
  1.521    25
 1.5335    24
  1.546    33
 1.5585    25
  1.571    18
 1.5835    22
  1.596    26
 1.6085    16
  1.621    17
 1.6335    23
  1.646    22
 1.6586    14
 1.6711    15
 1.6836    24
 1.6961    27
 1.7086    22
 1.7211    20
 1.7336    27
 1.7461    21
 1.7586    25
 1.7711    28
 1.7836    17
 1.7961    32
 1.8086    38
 1.8211    39
 1.8337    40
 1.8462    35
 1.8587    31
 1.8712    29
 1.8837    33
 1.8962    29
 1.9087    28
 1.9212    26
 1.9337    25
 1.9462    31
 1.9587    32
 1.9712    27
 1.9837    35
 1.9962    29
 2.0088    28
 2.0213    20
 2.0338    26
 2.0463    23
 2.0588    23
 2.0713    33
 2.0838    38
 2.0963    42
 2.1088    38
 2.1213    61
 2.1338    73
 2.1463    74
 2.1588   102
 2.1713   132
 2.1839   149
 2.1964   177
 2.2089   186
 2.2214   202
 2.2339   218
 2.2464   244
 2.2589   283
 2.2714   299
 2.2839   396
 2.2964   467
 2.3089   559
 2.3214   616
 2.3339   690
 2.3465   751
  2.359   828
 2.3715   830
  2.384   744
 2.3965   773
  2.409   749
 2.4215   695
  2.434   732
 2.4465   682
  2.459   657
 2.4715   587
  2.484   525
 2.4965   466
  2.509   378
 2.5216   275
 2.5341   199
 2.5466   180
 2.5591   122
 2.5716    74
 2.5841    83
 2.5966    60
 2.6091    58
 2.6216    79
 2.6341    51
 2.6466    74
 2.6591    87
 2.6716    84
 2.6841    78
 2.6967    64
 2.7092    55
 2.7217    44
 2.7342    56
 2.7467    44
 2.7592    39
 2.7717    32
 2.7842    20
 2.7967    26
 2.8092    25
 2.8217    22
 2.8342    21
 2.8467    16
 2.8592    24
 2.8718    31
 2.8843    38
 2.8968    31
 2.9093    40
 2.9218    43
 2.9343    51
 2.9468    53
 2.9593    52
 2.9718    63
 2.9843    55
 2.9968    53
 3.0093    43
 3.0218    38
 3.0344    43
 3.0469    41
 3.0594    32
 3.0719    36
 3.0844    57
 3.0969    35
 3.1094    45
 3.1219    53
 3.1344    29
 3.1469    46
 3.1594    41
 3.1719    54
 3.1844    35
 3.1969    42
 3.2095    32
  3.222    29
 3.2345    30
  3.247    33
 3.2595    31
  3.272    26
 3.2845    26
  3.297    29
 3.3095    30
  3.322    22
 3.3345    28
  3.347    28
 3.3595    27
  3.372    19
 3.3846    23
 3.3971    29
 3.4096    14
 3.4221    18
 3.4346    22
 3.4471    14
 3.4596    15
 3.4721    16
 3.4846    19
 3.4971    23
 3.5096     9
 3.5221    15
 3.5346    25
 3.5471    21
 3.5597    27
 3.5722    34
 3.5847    32
 3.5972    26
 3.6097    42
 3.6222    49
 3.6347    49
 3.6472    86
 3.6597    75
 3.6722   102
 3.6847   126
 3.6972   118
 3.7097    99
 3.7223   109
 3.7348   106
 3.7473    81
 3.7598    67
 3.7723    62
 3.7848    47
 3.7973    26
 3.8098    26
 3.8223    31
 3.8348    19
 3.8473    25
 3.8598    16
 3.8723    15
 3.8848    22
 3.8974    22
 3.9099    22
 3.9224    20
 3.9349    28
 3.9474    25
 3.9599    18
 3.9724    24
 3.9849    34
 3.9974    18
 4.0099    39
 4.0224    30
 4.0349    26
 4.0474    24
 4.0599    28
 4.0725    30
  4.085    32
 4.0975    29
   4.11    24
 4.1225    23
  4.135    16
 4.1475    20
   4.16    17
 4.1725    16
  4.185    14
 4.1975     7
   4.21    18
 4.2225    18
  4.235    11
 4.2476    15
 4.2601    17
 4.2726    15
 4.2851    19
 4.2976    22
 4.3101    11
 4.3226    21
 4.3351     9
 4.3476    10
 4.3601    19
 4.3726    14
 4.3851    18
 4.3976    12
 4.4102    15
 4.4227    19
 4.4352    20
 4.4477    22
 4.4602    16
 4.4727    14
 4.4852    20
 4.4977    16
 4.5102    23
 4.5227    22
 4.5352    13
 4.5477    17
 4.5602    11
 4.5727    17
 4.5853    17
 4.5978    12
 4.6103    18
 4.6228    15
 4.6353    19
 4.6478    17
 4.6603    17
 4.6728    19
 4.6853    21
 4.6978    17
 4.7103    18
 4.7228    13
 4.7353    24
 4.7478    17
 4.7604    13
 4.7729    21
 4.7854    11
 4.7979    12
 4.8104    20
 4.8229    16
 4.8354    18
 4.8479    21
 4.8604    11
 4.8729    13
 4.8854     9
 4.8979    24
 4.9104    23
 4.9229    17
 4.9355    17
  4.948    22
 4.9605    22
  4.973    15
 4.9855    24
  4.998    13
 5.0105    19
  5.023    16
 5.0355    18
  5.048    15
 5.0605    19
  5.073    27
 5.0855    23
 5.0981    14
 5.1106    23
 5.1231    10
 5.1356    22
 5.1481    17
 5.1606    20
 5.1731    13
 5.1856    25
 5.1981    27
 5.2106    14
 5.2231    27
 5.2356    16
 5.2481    25
 5.2606    21
 5.2732    25
 5.2857    20
 5.2982    18
 5.3107    26
 5.3232    23
 5.3357    26
 5.3482    33
 5.3607    28
 5.3732    23
 5.3857    23
 5.3982    26
 5.4107    29
 5.4232    25
 5.4357    28
 5.4483    28
 5.4608    23
 5.4733    22
 5.4858    19
 5.4983    20
 5.5108    27
 5.5233    20
 5.5358    28
 5.5483    23
 5.5608    30
 5.5733    24
 5.5858    25
 5.5983    38
 5.6108    23
 5.6234    23
 5.6359    25
 5.6484    18
 5.6609    25
 5.6734    22
 5.6859    32
 5.6984    28
 5.7109    22
 5.7234    29
 5.7359    38
 5.7484    27
 5.7609    24
 5.7734    32
  5.786    33
 5.7985    29
  5.811    36
 5.8235    27
  5.836    43
 5.8485    32
  5.861    31
 5.8735    22
  5.886    35
 5.8985    45
  5.911    31
 5.9235    37
  5.936    29
 5.9485    35
 5.9611    26
 5.9736    30
 5.9861    38
 5.9986    30
 6.0111    28
 6.0236    24
 6.0361    31
 6.0486    29
 6.0611    27
 6.0736    37
 6.0861    35
 6.0986    26
 6.1111    32
 6.1236    28
 6.1362    31
 6.1487    27
 6.1612    32
 6.1737    34
 6.1862    29
 6.1987    37
 6.2112    29
 6.2237    41
 6.2362    34
 6.2487    39
 6.2612    39
 6.2737    36
 6.2862    50
 6.2988    52
 6.3113    71
 6.3238    74
 6.3363    71
 6.3488    81
 6.3613   115
 6.3738   110
 6.3863   101
 6.3988   118
 6.4113   110
 6.4238   126
 6.4363   104
 6.4488   111
 6.4613    81
 6.4739    99
 6.4864    74
 6.4989    57
 6.5114    70
 6.5239    48
 6.5364    44
 6.5489    43
 6.5614    42
 6.5739    35
 6.5864    38
 6.5989    37
 6.6114    28
 6.6239    33
 6.6364    30
  6.649    34
 6.6615    35
  6.674    38
 6.6865    33
  6.699    34
 6.7115    36
  6.724    41
 6.7365    46
  6.749    33
 6.7615    35
  6.774    38
 6.7865    29
  6.799    38
 6.8115    38
 6.8241    33
 6.8366    44
 6.8491    33
 6.8616    42
 6.8741    52
 6.8866    32
 6.8991    42
 6.9116    41
 6.9241    52
 6.9366    42
 6.9491    47
 6.9616    32
 6.9741    45
 6.9867    51
 6.9992    50
 7.0117    39
 7.0242    40
 7.0367    50
 7.0492    57
 7.0617    69
 7.0742    59
 7.0867    53
 7.0992    54
 7.1117    56
 7.1242    49
 7.1367    45
 7.1492    52
 7.1618    40
 7.1743    56
 7.1868    43
 7.1993    46
 7.2118    42
 7.2243    45
 7.2368    61
 7.2493    45
 7.2618    51
 7.2743    61
 7.2868    67
 7.2993    72
 7.3118    82
 7.3243    66
 7.3369    95
 7.3494    79
 7.3619    80
 7.3744    74
 7.3869    90
 7.3994    98
 7.4119    85
 7.4244    98
 7.4369    82
 7.4494    91
 7.4619    74
 7.4744    76
 7.4869    74
 7.4994    69
  7.512    69
 7.5245    48
  7.537    70
 7.5495    70
  7.562    61
 7.5745    46
  7.587    56
 7.5995    49
  7.612    57
 7.6245    58
  7.637    62
 7.6495    51
  7.662    61
 7.6746    52
 7.6871    49
 7.6996    56
 7.7121    56
 7.7246    59
 7.7371    46
 7.7496    52
 7.7621    62
 7.7746    55
 7.7871    58
 7.7996    52
 7.8121    50
 7.8246    55
 7.8371    56
 7.8497    77
 7.8622    59
 7.8747    78
 7.8872    78
 7.8997    72
 7.9122    74
 7.9247    82
 7.9372    91
 7.9497    88
 7.9622    97
 7.9747    96
 7.9872   117
 7.9997   114
 8.0122   127
 8.0248   140
 8.0373   144
 8.0498   160
 8.0623   147
 8.0748   132
 8.0873   155
 8.0998   146
 8.1123   141
 8.1248   146
 8.1373   130
 8.1498   122
 8.1623   181
 8.1748   152
 8.1873   159
 8.1999   154
 8.2124   170
 8.2249   200
 8.2374   225
 8.2499   286
 8.2624   302
 8.2749   408
 8.2874   480
 8.2999   522
 8.3124   695
 8.3249   763
 8.3374   856
 8.3499   991
 8.3625  1056
  8.375  1045
 8.3875  1167
    8.4  1116
 8.4125   963
  8.425   990
 8.4375   962
   8.45   866
 8.4625   707
  8.475   577
 8.4875   545
    8.5   431
 8.5125   292
  8.525   242
 8.5376   222
 8.5501   164
 8.5626   155
 8.5751   120
 8.5876   124
 8.6001   101
 8.6126   102
 8.6251   121
 8.6376   135
 8.6501   132
 8.6626   145
 8.6751   136
 8.6876   148
 8.7001   175
 8.7127   164
 8.7252   172
 8.7377   138
 8.7502   151
 8.7627   148
 8.7752   150
 8.7877   151
 8.8002   123
 8.8127   124
 8.8252   129
 8.8377    89
 8.8502    96
 8.8627   128
 8.8752    88
 8.8878   103
 8.9003   108
 8.9128    87
 8.9253    82
 8.9378    92
 8.9503    77
 8.9628    95
 8.9753   102
 8.9878   119
 9.0003   120
 9.0128   115
 9.0253   167
 9.0378   134
 9.0504   192
 9.0629   193
 9.0754   259
 9.0879   264
 9.1004   312
 9.1129   366
 9.1254   411
 9.1379   461
 9.1504   476
 9.1629   518
 9.1754   552
 9.1879   558
 9.2004   561
 9.2129   507
 9.2255   471
  9.238   472
 9.2505   422
  9.263   391
 9.2755   355
  9.288   345
 9.3005   287
  9.313   232
 9.3255   238
  9.338   184
 9.3505   173
  9.363   198
 9.3755   185
  9.388   176
 9.4006   193
 9.4131   169
 9.4256   204
 9.4381   210
 9.4506   196
 9.4631   203
 9.4756   251
 9.4881   278
 9.5006   269
 9.5131   310
 9.5256   320
 9.5381   358
 9.5506   392
 9.5631   462
 9.5757   475
 9.5882   514
 9.6007   570
 9.6132   678
 9.6257   686
 9.6382   749
 9.6507   731
 9.6632   792
 9.6757   737
 9.6882   707
 9.7007   747
 9.7132   720
 9.7257   647
 9.7383   562
 9.7508   573
 9.7633   557
 9.7758   500
 9.7883   500
 9.8008   537
 9.8133   490
 9.8258   574
 9.8383   649
 9.8508   739
 9.8633   891
 9.8758   929
 9.8883  1136
 9.9008  1233
 9.9134  1434
 9.9259  1479
 9.9384  1645
 9.9509  1694
 9.9634  1785
 9.9759  1787
 9.9884  1788
10.0009  1777
10.0134  1651
10.0259  1559
10.0384  1406
10.0509  1173
10.0634   958
10.0759   837
10.0885   689
 10.101   589
10.1135   447
 10.126   373
10.1385   346
 10.151   242
10.1635   212
 10.176   202
10.1885   158
 10.201   153
10.2135   144
 10.226   150
10.2385   167
 10.251   173
10.2636   207
10.2761   221
10.2886   297
10.3011   337
10.3136   392
10.3261   537
10.3386   690
10.3511   955
10.3636  1197
10.3761  1462
10.3886  1880
10.4011  2367
10.4136  2787
10.4262  3513
10.4387  4148
10.4512  4839
10.4637  5539
10.4762  6382
10.4887  7166
10.5012  7881
10.5137  8231
10.5262  8671
10.5387  8726
10.5512  8786
10.5637  8355
10.5762  8120
10.5887  7446
10.6013  6587
10.6138  5857
10.6263  5015
10.6388  4194
10.6513  3518
10.6638  2745
10.6763  2135
10.6888  1675
10.7013  1263
10.7138   949
10.7263   686
10.7388   505
10.7513   347
10.7638   253
10.7764   211
10.7889   160
10.8014   140
10.8139   125
10.8264   115
10.8389    88
10.8514    96
10.8639    87
10.8764    71
10.8889    78
10.9014    81
10.9139    66
10.9264    80
10.9389    65
10.9515    80
 10.964    62
10.9765    88
 10.989    62
11.0015    68
 11.014    68
11.0265    62
 11.039    69
11.0515    63
 11.064    61
11.0765    69
 11.089    65
11.1015    64
11.1141    69
11.1266    62
11.1391    80
11.1516    78
11.1641    89
11.1766    80
11.1891    97
11.2016   142
11.2141   141
11.2266   167
11.2391   176
11.2516   191
11.2641   193
11.2766   227
11.2892   235
11.3017   220
11.3142   243
11.3267   225
11.3392   245
11.3517   238
11.3642   234
11.3767   204
11.3892   231
11.4017   181
11.4142   157
11.4267   175
11.4392   142
11.4517   170
11.4643   120
11.4768   132
11.4893   142
11.5018   136
11.5143   148
11.5268   152
11.5393   148
11.5518   127
11.5643   144
11.5768   156
11.5893   171
11.6018   158
11.6143   145
11.6268   141
11.6394   178
11.6519   197
11.6644   247
11.6769   230
11.6894   272
11.7019   329
11.7144   413
11.7269   471
11.7394   510
11.7519   571
11.7644   654
11.7769   741
11.7894   792
 11.802   814
11.8145   845
 11.827   799
11.8395   815
 11.852   858
11.8645   837
 11.877   786
11.8895   728
 11.902   704
11.9145   661
 11.927   603
11.9395   555
 11.952   500
11.9645   409
11.9771   424
11.9896   400
12.0021   364
12.0146   327
12.0271   308
12.0396   271
12.0521   253
12.0646   269
12.0771   272
12.0896   288
12.1021   258
12.1146   250
12.1271   274
12.1396   284
12.1522   321
12.1647   318
12.1772   338
12.1897   371
12.2022   375
12.2147   405
12.2272   425
12.2397   450
12.2522   443
12.2647   465
12.2772   478
12.2897   492
12.3022   457
12.3147   479
12.3273   451
12.3398   478
12.3523   442
12.3648   472
12.3773   466
12.3898   500
12.4023   588
12.4148   669
12.4273   796
12.4398  1049
12.4523  1229
12.4648  1587
12.4773  2047
12.4899  2393
12.5024  2946
12.5149  3299
12.5274  3915
12.5399  4410
12.5524  4898
12.5649  5293
12.5774  5633
12.5899  5950
12.6024  6061
12.6149  5912
12.6274  5803
12.6399  5523
12.6524  5211
 12.665  4657
12.6775  4188
  12.69  3710
12.7025  3180
 12.715  2775
12.7275  2416
  12.74  1881
12.7525  1586
 12.765  1395
12.7775  1252
  12.79   998
12.8025   815
 12.815   711
12.8275   615
12.8401   487
12.8526   450
12.8651   432
12.8776   350
12.8901   325
12.9026   302
12.9151   297
12.9276   267
12.9401   268
12.9526   287
12.9651   262
12.9776   274
12.9901   280
13.0026   265
13.0152   244
13.0277   251
13.0402   245
13.0527   220
13.0652   209
13.0777   175
13.0902   166
13.1027   135
13.1152   125
13.1277   114
13.1402    79
13.1527    81
13.1652    73
13.1778    53
13.1903    48
13.2028    44
13.2153    62
13.2278    43
13.2403    40
13.2528    42
13.2653    35
13.2778    36
13.2903    37
13.3028    39
13.3153    51
13.3278    41
13.3403    43
13.3529    37
13.3654    38
13.3779    42
13.3904    44
13.4029    31
13.4154    35
13.4279    31
13.4404    33
13.4529    36
13.4654    32
13.4779    24
13.4904    23
13.5029    19
13.5154    25
 13.528    17
13.5405    27
 13.553    23
13.5655    21
 13.578    18
13.5905    21
 13.603    23
13.6155    25
 13.628    27
13.6405    33
 13.653    29
13.6655    33
 13.678    37
13.6905    49
13.7031    70
13.7156    70
13.7281    71
13.7406    85
13.7531   103
13.7656    99
13.7781   121
13.7906   121
13.8031   110
13.8156   111
13.8281   109
13.8406   102
13.8531   129
13.8657   117
13.8782   105
13.8907    81
13.9032    89
13.9157    66
13.9282    69
13.9407    65
13.9532    50
13.9657    52
13.9782    38
13.9907    19
14.0032    25
14.0157    31
14.0282    27
14.0408    33
14.0533    35
14.0658    33
14.0783    32
14.0908    42
14.1033    53
14.1158    43
14.1283    41
14.1408    49
14.1533    50
14.1658    47
14.1783    63
14.1908    68
14.2033    69
14.2159    60
14.2284    66
14.2409    65
14.2534    71
14.2659    55
14.2784    58
14.2909    81
14.3034    47
14.3159    46
14.3284    49
14.3409    38
14.3534    49
14.3659    47
14.3784    39
 14.391    41
14.4035    38
 14.416    44
14.4285    39
 14.441    25
14.4535    31
 14.466    25
14.4785    42
 14.491    30
14.5035    41
 14.516    42
14.5285    66
 14.541    63
14.5536    91
14.5661   111
14.5786   108
14.5911   165
14.6036   224
14.6161   243
14.6286   301
14.6411   337
14.6536   392
14.6661   413
14.6786   500
14.6911   534
14.7036   596
14.7161   589
14.7287   613
14.7412   610
14.7537   613
14.7662   639
14.7787   570
14.7912   536
14.8037   506
14.8162   467
14.8287   412
14.8412   347
14.8537   323
14.8662   259
14.8787   235
14.8912   215
14.9038   157
14.9163   122
14.9288   122
14.9413    95
14.9538    91
14.9663    98
14.9788    89
14.9913    87
15.0038   106
15.0163   103
15.0288   121
15.0413   117
15.0538   153
15.0663   142
15.0789   157
15.0914   189
15.1039   190
15.1164   205
15.1289   200
15.1414   227
15.1539   209
15.1664   186
15.1789   173
15.1914   180
15.2039   185
15.2164   141
15.2289   155
15.2415   138
 15.254   118
15.2665   125
 15.279    99
15.2915    84
 15.304    61
15.3165    64
 15.329    59
15.3415    41
 15.354    33
15.3665    26
 15.379    41
15.3915    23
 15.404    16
15.4166    25
15.4291    20
15.4416    19
15.4541     7
15.4666    15
15.4791    14
15.4916    15
15.5041    17
15.5166    15
15.5291    13
15.5416    16
15.5541    15
15.5666    17
15.5791    19
15.5917    22
15.6042    35
15.6167    27
15.6292    26
15.6417    29
15.6542    41
15.6667    35
15.6792    31
15.6917    48
15.7042    40
15.7167    41
15.7292    45
15.7417    50
15.7542    43
15.7668    53
15.7793    47
15.7918    44
15.8043    43
15.8168    42
15.8293    14
15.8418    29
15.8543    22
15.8668    22
15.8793    11
15.8918    26
15.9043    15
15.9168    12
15.9294    15
15.9419    12
15.9544    16
15.9669    10
15.9794    11
15.9919    17
16.0044    16
16.0169    11
16.0294    15
16.0419     9
16.0544    10
16.0669    13
16.0794    13
16.0919    12
16.1045     7
 16.117    16
16.1295    12
 16.142     7
16.1545     9
 16.167     5
16.1795     7
 16.192     8
16.2045    12
 16.217    11
16.2295    12
 16.242     7
16.2545     7
 16.267    10
16.2796     7
16.2921     9
16.3046    10
16.3171     6
16.3296    10
16.3421     8
16.3546    15
16.3671     5
16.3796    10
16.3921    14
16.4046     9
16.4171     7
16.4296    10
16.4421     6
16.4547     7
16.4672    15
16.4797    14
16.4922    11
16.5047     9
16.5172     6
16.5297    10
16.5422    10
16.5547     7
16.5672     8
16.5797     4
16.5922    11
16.6047     8
16.6173    13
16.6298    13
16.6423     8
16.6548     7
16.6673    13
16.6798    13
16.6923     5
16.7048    10
16.7173    14
16.7298    13
16.7423    10
16.7548    16
16.7673     4
16.7798    16
16.7924     8
16.8049    17
16.8174    13
16.8299     8
16.8424     8
16.8549    10
16.8674    10
16.8799    10
16.8924    11
16.9049    12
16.9174    14
16.9299    12
16.9424    11
16.9549    11
16.9675    16
  16.98     7
16.9925     6
 17.005     8
17.0175     8
  17.03     5
17.0425    11
 17.055    11
17.0675     6
  17.08     5
17.0925    13
 17.105     7
17.1175     8
  17.13     3
17.1426     5
17.1551    11
17.1676    11
17.1801     7
17.1926    12
17.2051    14
17.2176    13
17.2301    10
17.2426    11
17.2551    11
17.2676    13
17.2801     9
17.2926     8
17.3052    12
17.3177     4
17.3302     7
17.3427    10
17.3552     9
17.3677     7
17.3802    11
17.3927    17
17.4052     9
17.4177     7
17.4302     9
17.4427    16
17.4552    13
17.4677     9
17.4803    11
17.4928     4
17.5053    10
17.5178    10
17.5303    14
17.5428     9
17.5553     9
17.5678    13
17.5803    19
17.5928     9
17.6053    14
17.6178    19
17.6303    12
17.6428    12
17.6554     9
17.6679     7
17.6804    17
17.6929    10
17.7054     9
17.7179    12
17.7304     6
17.7429     4
17.7554     8
17.7679     5
17.7804     6
17.7929    11
17.8054    11
17.8179    10
17.8305    10
 17.843    14
17.8555    12
 17.868    11
17.8805    11
 17.893     9
17.9055    11
 17.918    10
17.9305    11
 17.943    15
17.9555     7
 17.968    11
17.9805     9
17.9931     8
18.0056     9
18.0181     7
18.0306    11
18.0431     8
18.0556    13
18.0681     9
18.0806     7
18.0931    13
18.1056    10
18.1181     4
18.1306     9
18.1431    10
18.1556     6
18.1682     8
18.1807     5
18.1932     4
18.2057    13
18.2182     6
18.2307    13
18.2432    11
18.2557     9
18.2682     7
18.2807     9
18.2932     7
18.3057     5
18.3182     4
18.3307     8
18.3433     6
18.3558    10
18.3683     5
18.3808     7
18.3933    11
18.4058     9
18.4183    14
18.4308     7
18.4433    10
18.4558     6
18.4683     9
18.4808    11
18.4933     9
18.5058     7
18.5184     4
18.5309    11
18.5434     3
18.5559     5
18.5684     7
18.5809     5
18.5934    13
18.6059    10
18.6184    14
18.6309     6
18.6434    10
18.6559     9
18.6684     9
 18.681     9
18.6935    14
 18.706     9
18.7185     7
 18.731    12
18.7435    12
 18.756    12
18.7685    12
 18.781     6
18.7935     9
 18.806     5
18.8185     9
 18.831    18
18.8435    11
18.8561     8
18.8686    11
18.8811     8
18.8936     8
18.9061    10
18.9186     7
18.9311     4
18.9436     6
18.9561    13
18.9686     1
18.9811    11
18.9936    11
19.0061     4
19.0186     9
19.0312     5
19.0437     6
19.0562     9
19.0687     6
19.0812     6
19.0937     7
19.1062     3
19.1187     5
19.1312    10
19.1437     5
19.1562     6
19.1687     7
19.1812     7
19.1937    16
19.2063     6
19.2188    11
19.2313    11
19.2438    11
19.2563    11
19.2688    10
19.2813    16
19.2938     8
19.3063     7
19.3188    12
19.3313    13
19.3438     6
19.3563     8
19.3689     8
19.3814     9
19.3939    12
19.4064    10
19.4189    18
19.4314     4
19.4439     5
19.4564    11
19.4689    11
19.4814    12
19.4939     5
19.5064     8
19.5189     6
19.5314     8
 19.544    10
19.5565     6
 19.569     8
19.5815     7
 19.594     4
19.6065     6
 19.619     8
19.6315     5
 19.644     7
19.6565    11
 19.669     8
19.6815     6
 19.694     9
19.7065     9
19.7191     8
19.7316    12
19.7441     7
19.7566     9
19.7691     7
19.7816     8
19.7941    18
19.8066     9
19.8191    10
19.8316     9
19.8441     6
19.8566     6
19.8691     7
19.8816     7
19.8942    10
19.9067     6
19.9192    12
19.9317    13
19.9442     6
19.9567    11
19.9692     6
19.9817     5
19.9942     2
20.0067     7
20.0192     2
20.0317     5
20.0442     8
20.0568     8
20.0693    10
20.0818     9
20.0943     7
20.1068     9
20.1193     9
20.1318     7
20.1443    11
20.1568     5
20.1693     2
20.1818     9
20.1943     6
20.2068     6
20.2193     7
20.2319    13
20.2444     9
20.2569     3
20.2694    15
20.2819     3
20.2944     7
20.3069     5
20.3194     6
20.3319     6
20.3444    10
20.3569     4
20.3694     9
20.3819     6
20.3944     7
 20.407     8
20.4195    12
 20.432     9
20.4445     6
 20.457     5
20.4695     5
 20.482    14
20.4945     7
 20.507     4
20.5195     9
 20.532    10
20.5445     7
 20.557    10
20.5695     9
20.5821    14
20.5946     4
20.6071    13
20.6196     8
20.6321     5
20.6446     5
20.6571    10
20.6696     5
20.6821     5
20.6946     7
20.7071     7
20.7196     6
20.7321    10
20.7447     6
20.7572    10
20.7697     8
20.7822     5
20.7947     5
20.8072     8
20.8197     6
20.8322    12
20.8447     7
20.8572     9
20.8697     6
20.8822     5
20.8947    10
20.9072     5
20.9198     9
20.9323     5
20.9448     9
20.9573     8
20.9698     8
20.9823     8
20.9948    14
21.0073     6
21.0198    14
21.0323    14
21.0448     7
21.0573    12
21.0698     5
21.0823     7
21.0949     4
21.1074     7
21.1199    12
21.1324     9
21.1449     7
21.1574     7
21.1699    10
21.1824    14
21.1949     4
21.2074     3
21.2199     7
21.2324    11
21.2449     5
21.2574     5
  21.27     6
21.2825     4
 21.295     6
21.3075     3
  21.32     9
21.3325    10
 21.345     4
21.3575     6
  21.37    11
21.3825     4
 21.395     5
21.4075     2
  21.42     2
21.4326     9
21.4451     8
21.4576     9
21.4701     6
21.4826     9
21.4951     6
21.5076     7
21.5201     5
21.5326     3
21.5451     5
21.5576    10
21.5701     5
21.5826     3
21.5951    10
21.6077     6
21.6202     4
21.6327     8
21.6452    10
21.6577    11
21.6702     4
21.6827     5
21.6952     5
21.7077     4
21.7202    10
21.7327     4
21.7452     5
21.7577     6
21.7702    13
21.7828    11
21.7953     6
21.8078     4
21.8203     7
21.8328    10
21.8453    10
21.8578     7
21.8703     5
21.8828     4
21.8953     7
21.9078     4
21.9203    11
21.9328     3
21.9453     5
21.9579     5
21.9704     8
21.9829    11
21.9954     5
22.0079     5
22.0204    15
22.0329     2
22.0454     4
22.0579    10
22.0704    10
22.0829     7
22.0954     8
22.1079     5
22.1205    19
 22.133    11
22.1455     9
 22.158     5
22.1705    10
 22.183    12
22.1955     8
 22.208     7
22.2205     6
 22.233     6
22.2455     6
 22.258     6
22.2705     7
 22.283     3
22.2956    12
22.3081     4
22.3206     2
22.3331    12
22.3456     4
22.3581     6
22.3706     6
22.3831     8
22.3956     6
22.4081     4
22.4206     6
22.4331     5
22.4456     8
22.4581    14
22.4707     4
22.4832     5
22.4957     7
22.5082     7
22.5207    11
22.5332     6
22.5457     5
22.5582     4
22.5707     4
22.5832     9
22.5957     1
22.6082     7
22.6207     7
22.6332    12
22.6458     6
22.6583     7
22.6708    11
22.6833     3
22.6958    11
22.7083     5
22.7208     6
22.7333     7
22.7458     6
22.7583     1
22.7708     4
22.7833     9
22.7958     4
22.8084     6
22.8209     5
22.8334     3
22.8459     9
22.8584     7
22.8709     3
22.8834     4
22.8959     4
22.9084    11
22.9209     4
22.9334     2
22.9459     3
22.9584    11
22.9709     2
22.9835     7
 22.996     6
23.0085     6
 23.021     6
23.0335     7
 23.046     6
23.0585     2
 23.071     8
23.0835     4
 23.096     5
23.1085     4
 23.121    10
23.1335     2
 23.146     8
23.1586    11
23.1711     9
23.1836     6
23.1961     6
23.2086     6
23.2211    12
23.2336     4
23.2461     2
23.2586     5
23.2711    11
23.2836     4
23.2961     2
23.3086     5
23.3211     2
23.3337     7
23.3462     2
23.3587     5
23.3712     3
23.3837     7
23.3962     3
23.4087     7
23.4212     3
23.4337     4
23.4462     3
23.4587     1
23.4712     5
23.4837     2
23.4963     3
23.5088     4
23.5213     4
23.5338     5
23.5463     6
23.5588     5
23.5713     5
23.5838     2
23.5963     7
23.6088     2
23.6213     5
23.6338     2
23.6463     3
23.6588     3
23.6714     5
23.6839     8
23.6964     7
23.7089     2
23.7214     3
23.7339     7
23.7464     7
23.7589     3
23.7714     2
23.7839     3
23.7964     6
23.8089     5
23.8214     6
23.8339     2
23.8465     7
 23.859     3
23.8715     4
 23.884     4
23.8965     2
 23.909     4
23.9215     4
 23.934     5
23.9465     7
 23.959     1
23.9715     3
 23.984     4
23.9965     2
 24.009     4
24.0216     6
24.0341     6
24.0466     5
24.0591     7
24.0716     4
24.0841     5
24.0966     6
24.1091     2
24.1216     3
24.1341     6
24.1466     9
24.1591     4
24.1716     3
24.1842     7
24.1967     4
24.2092     9
24.2217     6
24.2342     4
24.2467    10
24.2592     2
24.2717     3
24.2842     6
24.2967     2
24.3092     6
24.3217     1
24.3342     4
24.3467     4
24.3593     4
24.3718     3
24.3843     5
24.3968     4
24.4093     6
24.4218     5
24.4343     5
24.4468     5
24.4593     4
24.4718     9
24.4843     3
24.4968     3
24.5093     4
24.5218     5
24.5344     3
24.5469     4
24.5594     2
24.5719     2
24.5844     7
24.5969     3
24.6094     3
24.6219     3
24.6344     3
24.6469     7
24.6594     5
24.6719     5
24.6844     5
24.6969     2
24.7095     2
 24.722     4
24.7345     4
 24.747     2
24.7595     3
 24.772     4
24.7845     3
 24.797     7
24.8095     3
 24.822     3
24.8345     7
 24.847     5
24.8595     2
24.8721     4
24.8846     5
24.8971     5
24.9096     7
24.9221     5
24.9346     7
24.9471     4
24.9596     5
24.9721     6
24.9846     3
24.9971     4
25.0096     3
25.0221     6
25.0346     5
25.0472     5
25.0597     2
25.0722     2
25.0847     8
25.0972     9
25.1097     5
25.1222     6
25.1347     2
25.1472     7
25.1597     9
25.1722     7
25.1847     6
25.1972     4
25.2097    10
25.2223     4
25.2348     6
25.2473     7
25.2598     4
25.2723     4
25.2848     5
25.2973     2
25.3098     3
25.3223     6
25.3348     1
25.3473     3
25.3598     2
25.3723     4
25.3848     3
25.3974     2
25.4099     4
25.4224     4
25.4349     2
25.4474     2
25.4599     7
25.4724     2
25.4849     2
25.4974     4
25.5099     1
25.5224     2
25.5349     0
25.5474     0
  25.56     3
25.5725     3
 25.585     2
25.5975     3
  25.61     4
25.6225     3
 25.635     6
25.6475     3
  25.66     8
25.6725     5
 25.685     3
25.6975     3
  25.71     2
25.7225     1
25.7351     2
25.7476     3
25.7601     5
25.7726     6
25.7851     3
25.7976     1
25.8101     3
25.8226     1
25.8351     3
25.8476     6
25.8601     9
25.8726     2
25.8851     6
25.8976     4
25.9102     4
25.9227     3
25.9352     3
25.9477     7
25.9602     7
25.9727     2
25.9852     3
25.9977     5
26.0102     5
26.0227     5
26.0352     5
26.0477     3
26.0602     3
26.0727     5
26.0853     2
26.0978     2
26.1103     2
26.1228     5
26.1353     4
26.1478     3
26.1603     1
26.1728     7
26.1853     4
26.1978     3
26.2103     6
26.2228     2
26.2353     2
26.2479     6
26.2604     2
26.2729     4
26.2854     6
26.2979     4
26.3104     6
26.3229     0
26.3354     5
26.3479     2
26.3604     0
26.3729     3
26.3854     3
26.3979     7
26.4104     3
 26.423     4
26.4355     2
 26.448     5
26.4605     4
 26.473     2
26.4855     2
 26.498     5
26.5105     4
 26.523     2
26.5355     3
 26.548     2
26.5605     5
 26.573     1
26.5855     3
26.5981     2
26.6106     2
26.6231     6
26.6356     1
26.6481     1
26.6606     4
26.6731     2
26.6856     3
26.6981     5
26.7106     6
26.7231     3
26.7356     5
26.7481     3
26.7606     3
26.7732     4
26.7857     3
26.7982     4
26.8107     2
26.8232     1
26.8357     2
26.8482     3
26.8607     5
26.8732     3
26.8857     2
26.8982     4
26.9107     1
26.9232     3
26.9358     5
26.9483     3
26.9608     3
26.9733     2
26.9858     4
26.9983     3
27.0108     1
27.0233     4
27.0358     7
27.0483     1
27.0608     2
27.0733     3
27.0858     3
27.0983     6
27.1109     3
27.1234     1
27.1359     6
27.1484     3
27.1609     3
27.1734     3
27.1859     5
27.1984     4
27.2109     0
27.2234     2
27.2359     5
27.2484     4
27.2609     2
27.2734     2
 27.286     0
27.2985     4
 27.311     1
27.3235     3
 27.336     3
27.3485     1
 27.361     3
27.3735     1
 27.386     4
27.3985     3
 27.411     2
27.4235     1
 27.436     0
27.4485     4
27.4611     4
27.4736     4
27.4861     4
27.4986     2
27.5111     2
27.5236     0
27.5361     3
27.5486     2
27.5611     5
27.5736     8
27.5861     3
27.5986     1
27.6111     0
27.6237     4
27.6362     3
27.6487     3
27.6612     4
27.6737     2
27.6862     2
27.6987     1
27.7112     0
27.7237     1
27.7362     0
27.7487     0
27.7612     3
27.7737     5
27.7862     3
27.7988     1
27.8113     5
27.8238     3
27.8363     1
27.8488     1
27.8613     5
27.8738     4
27.8863     1
27.8988     1
27.9113     1
27.9238     1
27.9363     1
27.9488     5
27.9613     2
27.9739     5
27.9864     3
27.9989     5
28.0114     2
28.0239     4
28.0364     1
28.0489     2
28.0614     4
28.0739     2
28.0864     2
28.0989     3
28.1114     6
28.1239     2
28.1364     2
 28.149     2
28.1615     2
 28.174     1
28.1865     2
 28.199     3
28.2115     3
 28.224     0
28.2365     4
 28.249     1
28.2615     5
 28.274     3
28.2865     4
 28.299     5
28.3116     4
28.3241     0
28.3366     0
28.3491     2
28.3616     1
28.3741     3
28.3866     2
28.3991     2
28.4116     5
28.4241     0
28.4366     1
28.4491     1
28.4616     2
28.4741     2
28.4867     4
28.4992     6
28.5117     0
28.5242     3
28.5367     2
28.5492     2
28.5617     1
28.5742     2
28.5867     0
28.5992     2
28.6117     0
28.6242     3
28.6367     1
28.6492     2
28.6618     1
28.6743     3
28.6868     3
28.6993     0
28.7118     1
28.7243     3
28.7368     1
28.7493     5
28.7618     3
28.7743     2
28.7868     4
28.7993     2
28.8118     0
28.8243     3
28.8369     2
28.8494     3
28.8619     3
28.8744     4
28.8869     5
28.8994     3
28.9119     1
28.9244     0
28.9369     0
28.9494     3
28.9619     2
28.9744     2
28.9869     2
28.9995     1
 29.012     4
29.0245     2
 29.037     3
29.0495     3
 29.062     3
29.0745     2
 29.087     1
29.0995     2
 29.112     2
29.1245     0
 29.137     3
29.1495     2
 29.162     1
29.1746     0
29.1871     1
29.1996     3
29.2121     3
29.2246     0
29.2371     3
29.2496     0
29.2621     3
29.2746     3
29.2871     3
29.2996     0
29.3121     0
29.3246     3
29.3371     0
29.3497     4
29.3622     1
29.3747     2
29.3872     1
29.3997     2
29.4122     2
29.4247     3
29.4372     3
29.4497     4
29.4622     3
29.4747     3
29.4872     3
29.4997     4
29.5123     2
29.5248     2
29.5373     0
29.5498     1
29.5623     1
29.5748     1
29.5873     1
29.5998     2
29.6123     1
29.6248     6
29.6373     3
29.6498     1
29.6623     2
29.6748     1
29.6874     3
29.6999     2
29.7124     2
29.7249     0
29.7374     0
29.7499     3
29.7624     0
29.7749     2
29.7874     1
29.7999     1
29.8124     0
29.8249     2
29.8374     1
29.8499     3
29.8625     3
 29.875     3
29.8875     1
   29.9     0
29.9125     5
 29.925     2
29.9375     0
  29.95     1
29.9625     4
 29.975     0
29.9875     0
     30     2
30.0125     0
 30.025     3
30.0376     2
30.0501     1
30.0626     1
30.0751     3
30.0876     0
30.1001     1
30.1126     2
30.1251     1
30.1376     3
30.1501     0
30.1626     4
30.1751     1
30.1876     1
30.2002     2
30.2127     0
30.2252     2
30.2377     2
30.2502     0
30.2627     1
30.2752     3
30.2877     2
30.3002     0
30.3127     1
30.3252     2
30.3377     1
30.3502     1
30.3627     0
30.3753     4
30.3878     3
30.4003     1
30.4128     0
30.4253     4
30.4378     1
30.4503     4
30.4628     3
30.4753     4
30.4878     1
30.5003     1
30.5128     1
30.5253     3
30.5378     2
30.5504     2
30.5629     1
30.5754     0
30.5879     3
30.6004     1
30.6129     0
30.6254     2
30.6379     0
30.6504     1
30.6629     2
30.6754     1
30.6879     5
30.7004     2
30.7129     1
30.7255     0
 30.738     0
30.7505     2
 30.763     0
30.7755     0
 30.788     3
30.8005     0
 30.813     1
30.8255     0
 30.838     1
30.8505     2
 30.863     1
30.8755     2
30.8881     1
30.9006     3
30.9131     1
30.9256     4
30.9381     2
30.9506     1
30.9631     2
30.9756     2
30.9881     2
31.0006     2
31.0131     2
31.0256     3
31.0381     3
31.0506     0
31.0632     1
31.0757     5
31.0882     0
31.1007     1
31.1132     5
31.1257     2
31.1382     1
31.1507     2
31.1632     2
31.1757     1
31.1882     1
31.2007     0
31.2132     3
31.2257     2
31.2383     0
31.2508     0
31.2633     2
31.2758     0
31.2883     3
31.3008     1
31.3133     3
31.3258     3
31.3383     0
31.3508     0
31.3633     0
31.3758     1
31.3883     2
31.4008     3
31.4134     1
31.4259     1
31.4384     1
31.4509     4
31.4634     0
31.4759     2
31.4884     4
31.5009     1
31.5134     5
31.5259     2
31.5384     0
31.5509     1
31.5634     0
 31.576     3
31.5885     3
 31.601     3
31.6135     6
 31.626     3
31.6385     0
 31.651     2
31.6635     3
 31.676     2
31.6885     3
 31.701     2
31.7135     2
 31.726     1
31.7385     0
31.7511     4
31.7636     2
31.7761     0
31.7886     2
31.8011     5
31.8136     2
31.8261     1
31.8386     0
31.8511     2
31.8636     0
31.8761     0
31.8886     1
31.9011     1
31.9136     2
31.9262     2
31.9387     3
31.9512     2
31.9637     2
31.9762     2
31.9887     1
32.0012     2
32.0137     1
32.0262     0
32.0387     2
32.0512     0
32.0637     2
32.0762     5
32.0887     4
32.1013     1
32.1138     5
32.1263     1
32.1388     5
32.1513     0
32.1638     2
32.1763     0
32.1888     2
32.2013     2
32.2138     1
32.2263     2
32.2388     3
32.2513     0
32.2639     0
32.2764     1
32.2889     2
32.3014     2
32.3139     0
32.3264     1
32.3389     2
32.3514     1
32.3639     0
32.3764     0
32.3889     1
32.4014     0
32.4139     4
32.4264     2
 32.439     0
32.4515     1
 32.464     0
32.4765     0
 32.489     2
32.5015     0
 32.514     1
32.5265     1
 32.539     3
32.5515     2
 32.564     0
32.5765     3
 32.589     3
32.6015     1
32.6141     1
32.6266     2
32.6391     1
32.6516     0
32.6641     0
32.6766     1
32.6891     4
32.7016     3
32.7141     1
32.7266     0
32.7391     0
32.7516     1
32.7641     2
32.7766     0
32.7892     0
32.8017     1
32.8142     1
32.8267     2
32.8392     0
32.8517     0
32.8642     0
32.8767     1
32.8892     1
32.9017     1
32.9142     0
32.9267     0
32.9392     2
32.9518     1
32.9643     0
32.9768     0
32.9893     0
33.0018     0
33.0143     0
33.0268     1
33.0393     0
33.0518     1
33.0643     0
33.0768     1
33.0893     1
33.1018     0
33.1143     0
33.1269     2
33.1394     2
33.1519     1
33.1644     1
33.1769     0
33.1894     0
33.2019     2
33.2144     0
33.2269     1
33.2394     0
33.2519     1
33.2644     0
33.2769     2
33.2894     0
 33.302     0
33.3145     0
 33.327     1
33.3395     2
 33.352     1
33.3645     2
 33.377     1
33.3895     0
 33.402     0
33.4145     1
 33.427     2
33.4395     0
 33.452     0
33.4645     1
33.4771     1
33.4896     2
33.5021     2
33.5146     0
33.5271     0
33.5396     0
33.5521     0
33.5646     0
33.5771     1
33.5896     1
33.6021     0
33.6146     0
33.6271     0
33.6397     2
33.6522     0
33.6647     3
33.6772     1
33.6897     0
33.7022     1
33.7147     0
33.7272     2
33.7397     0
33.7522     2
33.7647     1
33.7772     1
33.7897     1
33.8022     0
33.8148     0
33.8273     0
33.8398     4
33.8523     1
33.8648     1
33.8773     1
33.8898     0
33.9023     0
33.9148     0
33.9273     0
33.9398     0
33.9523     0
33.9648     0
33.9773     0
33.9899     0
34.0024     0
34.0149     1
34.0274     2
34.0399     1
34.0524     1
34.0649     0
34.0774     2
34.0899     0
34.1024     1
34.1149     2
34.1274     0
34.1399     0
34.1524     0
 34.165     0
34.1775     1
  34.19     0
34.2025     0
 34.215     1
34.2275     0
  34.24     0
34.2525     0
 34.265     0
34.2775     2
  34.29     1
34.3025     0
 34.315     0
34.3276     1
34.3401     1
34.3526     1
34.3651     0
34.3776     0
34.3901     0
34.4026     1
34.4151     1
34.4276     0
34.4401     1
34.4526     2
34.4651     0
34.4776     1
34.4901     0
34.5027     1
34.5152     1
34.5277     0
34.5402     0
34.5527     2
34.5652     0
34.5777     2
34.5902     1
34.6027     3
34.6152     1
34.6277     1
34.6402     1
34.6527     0
34.6652     0
34.6778     0
34.6903     1
34.7028     2
34.7153     0
34.7278     2
34.7403     0
34.7528     1
34.7653     0
34.7778     1
34.7903     0
34.8028     1
34.8153     0
34.8278     2
34.8403     1
34.8529     1
34.8654     1
34.8779     0
34.8904     2
34.9029     1
34.9154     1
34.9279     0
34.9404     1
34.9529     1
34.9654     0
34.9779     0
34.9904     2
35.0029     1
35.0155     0
 35.028     0
35.0405     1
 35.053     0
35.0655     1
 35.078     2
35.0905     0
 35.103     0
35.1155     1
 35.128     2
35.1405     1
 35.153     1
35.1655     1
 35.178     0
35.1906     1
35.2031     0
35.2156     1
35.2281     1
35.2406     0
35.2531     1
35.2656     0
35.2781     0
35.2906     0
35.3031     0
35.3156     1
35.3281     1
35.3406     0
35.3531     0
35.3657     2
35.3782     1
35.3907     0
35.4032     1
35.4157     2
35.4282     0
35.4407     0
35.4532     1
35.4657     1
35.4782     1
35.4907     0
35.5032     0
35.5157     2
35.5282     1
35.5408     1
35.5533     0
35.5658     0
35.5783     3
35.5908     3
35.6033     1
35.6158     0
35.6283     0
35.6408     2
35.6533     1
35.6658     2
35.6783     1
35.6908     1
35.7034     0
35.7159     1
35.7284     0
35.7409     1
35.7534     1
35.7659     0
35.7784     3
35.7909     2
35.8034     2
35.8159     1
35.8284     1
35.8409     1
35.8534     2
35.8659     1
35.8785     0
 35.891     0
35.9035     0
 35.916     0
35.9285     1
 35.941     0
35.9535     1
 35.966     1
35.9785     0
 35.991     0
36.0035     0
 36.016     3
36.0285     1
 36.041     1
36.0536     1
36.0661     0
36.0786     1
36.0911     0
36.1036     1
36.1161     0
36.1286     0
36.1411     0
36.1536     0
36.1661     2
36.1786     1
36.1911     0
36.2036     2
36.2161     0
36.2287     0
36.2412     0
36.2537     0
36.2662     0
36.2787     0
36.2912     1
36.3037     0
36.3162     0
36.3287     0
36.3412     1
36.3537     0
36.3662     0
36.3787     0
36.3913     0
36.4038     3
36.4163     1
36.4288     0
36.4413     0
36.4538     0
36.4663     2
36.4788     0
36.4913     0
36.5038     0
36.5163     1
36.5288     0
36.5413     1
36.5538     2
36.5664     0
36.5789     0
36.5914     0
36.6039     0
36.6164     0
36.6289     2
36.6414     0
36.6539     1
36.6664     1
36.6789     0
36.6914     1
36.7039     1
36.7164     0
36.7289     0
36.7415     0
 36.754     1
36.7665     0
 36.779     0
36.7915     0
 36.804     0
36.8165     0
 36.829     0
36.8415     1
 36.854     1
36.8665     3
 36.879     0
36.8915     1
 36.904     0
36.9166     1
36.9291     0
36.9416     1
36.9541     0
36.9666     0
36.9791     0
36.9916     2
37.0041     0
37.0166     0
37.0291     0
37.0416     0
37.0541     2
37.0666     0
37.0792     1
37.0917     0
37.1042     1
37.1167     2
37.1292     0
37.1417     1
37.1542     0
37.1667     0
37.1792     2
37.1917     0
37.2042     0
37.2167     0
37.2292     0
37.2417     1
37.2543     1
37.2668     1
37.2793     0
37.2918     1
37.3043     2
37.3168     1
37.3293     1
37.3418     1
37.3543     0
37.3668     1
37.3793     0
37.3918     0
37.4043     0
37.4168     0
37.4294     0
37.4419     1
37.4544     0
37.4669     1
37.4794     0
37.4919     0
37.5044     0
37.5169     0
37.5294     0
37.5419     0
37.5544     0
37.5669     1
37.5794     0
37.5919     1
37.6045     0
 37.617     0
37.6295     1
 37.642     0
37.6545     0
 37.667     0
37.6795     0
 37.692     1
37.7045     0
 37.717     0
37.7295     0
 37.742     1
37.7545     0
37.7671     0
37.7796     0
37.7921     0
37.8046     1
37.8171     0
37.8296     0
37.8421     0
37.8546     0
37.8671     0
37.8796     1
37.8921     0
37.9046     0
37.9171     2
37.9296     0
37.9422     0
37.9547     0
37.9672     2
37.9797     1
37.9922     0
38.0047     0
38.0172     0
38.0297     0
38.0422     1
38.0547     0
38.0672     0
38.0797     0
38.0922     0
38.1047     1
38.1173     0
38.1298     0
38.1423     0
38.1548     0
38.1673     3
38.1798     0
38.1923     0
38.2048     0
38.2173     0
38.2298     0
38.2423     0
38.2548     0
38.2673     0
38.2798     0
38.2924     1
38.3049     0
38.3174     0
38.3299     1
38.3424     0
38.3549     0
38.3674     0
38.3799     1
38.3924     0
38.4049     0
38.4174     0
38.4299     0
38.4424     2
 38.455     1
38.4675     0
  38.48     1
38.4925     0
 38.505     1
38.5175     0
  38.53     0
38.5425     0
 38.555     0
38.5675     0
  38.58     0
38.5925     1
 38.605     0
38.6175     0
38.6301     1
38.6426     0
38.6551     0
38.6676     0
38.6801     1
38.6926     0
38.7051     0
38.7176     0
38.7301     1
38.7426     1
38.7551     0
38.7676     0
38.7801     0
38.7926     0
38.8052     2
38.8177     0
38.8302     0
38.8427     0
38.8552     0
38.8677     0
38.8802     2
38.8927     2
38.9052     0
38.9177     1
38.9302     1
38.9427     1
38.9552     0
38.9677     0
38.9803     0
38.9928     0
39.0053     0
39.0178     1
39.0303     0
39.0428     0
39.0553     1
39.0678     1
39.0803     0
39.0928     0
39.1053     0
39.1178     0
39.1303     0
39.1429     0
39.1554     0
39.1679     0
39.1804     0
39.1929     0
39.2054     0
39.2179     0
39.2304     0
39.2429     0
39.2554     0
39.2679     0
39.2804     0
39.2929     3
39.3054     0
 39.318     0
39.3305     0
 39.343     0
39.3555     1
 39.368     0
39.3805     0
 39.393     0
39.4055     0
 39.418     0
39.4305     0
 39.443     0
39.4555     0
 39.468     0
39.4805     0
39.4931     0
39.5056     0
39.5181     0
39.5306     0
39.5431     0
39.5556     1
39.5681     0
39.5806     0
39.5931     0
39.6056     0
39.6181     0
39.6306     0
39.6431     1
39.6556     0
39.6682     1
39.6807     0
39.6932     1
39.7057     0
39.7182     0
39.7307     0
39.7432     0
39.7557     0
39.7682     0
39.7807     0
39.7932     0
39.8057     0
39.8182     1
39.8308     0
39.8433     0
39.8558     0
39.8683     1
39.8808     0
39.8933     0
39.9058     1
39.9183     0
39.9308     0
39.9433     0
39.9558     0
39.9683     0
39.9808     0
39.9933     0
40.0059     0
40.0184     0
40.0309     0
40.0434     1
40.0559     0
40.0684     0
40.0809     0
40.0934     0
40.1059     0
40.1184     0
40.1309     0
40.1434     0
40.1559     0
40.1684     0
 40.181     1
40.1935     0
 40.206     0
40.2185     0
 40.231     1
40.2435     0
 40.256     0
40.2685     0
 40.281     1
40.2935     1
 40.306     0
40.3185     0
 40.331     0
40.3435     0
40.3561     0
40.3686     0
40.3811     0
40.3936     0
40.4061     0
40.4186     0
40.4311     0
40.4436     0
40.4561     0
40.4686     0
40.4811     0
40.4936     0
40.5061     1
40.5187     0
40.5312     1
40.5437     0
40.5562     0
40.5687     0
40.5812     0
40.5937     0
40.6062     0
40.6187     0
40.6312     0
40.6437     1
40.6562     0
40.6687     1
40.6812     0
40.6938     0
40.7063     0
40.7188     0
40.7313     0
40.7438     0
40.7563     0
40.7688     0
40.7813     0
40.7938     0
40.8063     0
40.8188     0
40.8313     0
40.8438     0
40.8563     0
40.8689     0
40.8814     0
40.8939     0
40.9064     0
40.9189     1
40.9314     0
40.9439     0
40.9564     1
40.9689     0
40.9814     1
40.9939     0
41.0064     0
41.0189     0
41.0314     1
 41.044     1
41.0565     1
 41.069     0
41.0815     0
 41.094     0
41.1065     1
 41.119     0
41.1315     0
 41.144     0
41.1565     0
 41.169     0
41.1815     0
 41.194     0
41.2066     0
41.2191     0
41.2316     0
41.2441     0
41.2566     0
41.2691     0
41.2816     0
41.2941     0
41.3066     0
41.3191     0
41.3316     0
41.3441     0
41.3566     0
41.3691     0
41.3817     0
41.3942     0
41.4067     0
41.4192     0
41.4317     0
41.4442     0
41.4567     0
41.4692     0
41.4817     0
41.4942     0
41.5067     0
41.5192     0
41.5317     0
41.5442     0
41.5568     1
41.5693     0
41.5818     0
41.5943     0
41.6068     0
41.6193     0
41.6318     0
41.6443     0
41.6568     0
41.6693     1
41.6818     0
41.6943     1
41.7068     0
41.7193     1
41.7319     0
41.7444     1
41.7569     1
41.7694     0
41.7819     0
41.7944     0
41.8069     0
41.8194     0
41.8319     0
41.8444     0
41.8569     0
41.8694     0
41.8819     0
41.8945     0
 41.907     0
41.9195     0
 41.932     0
41.9445     0
 41.957     1
41.9695     0
 41.982     0
41.9945     0
 42.007     0
42.0195     0
 42.032     0
42.0445     1
 42.057     0
42.0696     0
42.0821     0
42.0946     0
42.1071     0
42.1196     0
42.1321     0
42.1446     0
42.1571     0
42.1696     0
42.1821     0
42.1946     0
42.2071     0
42.2196     0
42.2321     0
42.2447     0
42.2572     0
42.2697     0
42.2822     0
42.2947     0
42.3072     0
42.3197     0
42.3322     0
42.3447     0
42.3572     0
42.3697     0
42.3822     0
42.3947     0
42.4072     0
42.4198     0
42.4323     1
42.4448     0
42.4573     0
42.4698     0
42.4823     0
42.4948     0
42.5073     1
42.5198     0
42.5323     0
42.5448     0
42.5573     0
42.5698     0
42.5824     0
42.5949     0
42.6074     0
42.6199     0
42.6324     1
42.6449     0
42.6574     0
42.6699     0
42.6824     0
42.6949     0
42.7074     0
42.7199     0
42.7324     0
42.7449     0
42.7575     0
  42.77     0
42.7825     0
 42.795     0
42.8075     0
  42.82     0
42.8325     0
 42.845     0
42.8575     0
  42.87     0
42.8825     0
 42.895     0
42.9075     0
  42.92     0
42.9326     0
42.9451     1
42.9576     0
42.9701     0
42.9826     0
42.9951     0
43.0076     0
43.0201     0
43.0326     0
43.0451     0
43.0576     1
43.0701     0
43.0826     0
43.0951     0
43.1077     0
43.1202     0
43.1327     0
43.1452     1
43.1577     0
43.1702     0
43.1827     0
43.1952     0
43.2077     0
43.2202     0
43.2327     0
43.2452     0
43.2577     0
43.2703     0
43.2828     0
43.2953     1
43.3078     0
43.3203     0
43.3328     0
43.3453     0
43.3578     0
43.3703     0
43.3828     1
43.3953     0
43.4078     1
43.4203     0
43.4328     0
43.4454     0
43.4579     0
43.4704     0
43.4829     0
43.4954     0
43.5079     0
43.5204     0
43.5329     0
43.5454     0
43.5579     0
43.5704     0
43.5829     0
43.5954     0
43.6079     0
43.6205     0
 43.633     0
43.6455     0
 43.658     0
43.6705     0
 43.683     0
43.6955     0
 43.708     0
43.7205     0
 43.733     0
43.7455     0
 43.758     0
43.7705     0
 43.783     0
43.7956     0
43.8081     0
43.8206     0
43.8331     0
43.8456     0
43.8581     0
43.8706     0
43.8831     0
43.8956     0
43.9081     0
43.9206     0
43.9331     0
43.9456     0
43.9582     0
43.9707     0
43.9832     0
43.9957     0
44.0082     0
44.0207     0
44.0332     0
44.0457     0
44.0582     0
44.0707     0
44.0832     0
44.0957     0
44.1082     0
44.1207     0
44.1333     0
44.1458     0
44.1583     0
44.1708     0
44.1833     0
44.1958     0
44.2083     0
44.2208     0
44.2333     0
44.2458     0
44.2583     0
44.2708     0
44.2833     0
44.2958     0
44.3084     0
44.3209     0
44.3334     0
44.3459     1
44.3584     0
44.3709     0
44.3834     0
44.3959     0
44.4084     0
44.4209     0
44.4334     0
44.4459     0
44.4584     0
44.4709     0
44.4835     0
 44.496     0
44.5085     0
 44.521     0
44.5335     0
 44.546     1
44.5585     1
 44.571     0
44.5835     0
 44.596     0
44.6085     0
 44.621     0
44.6335     0
44.6461     0
44.6586     0
44.6711     0
44.6836     0
44.6961     0
44.7086     0
44.7211     0
44.7336     0
44.7461     0
44.7586     0
44.7711     0
44.7836     0
44.7961     0
44.8086     0
44.8212     0
44.8337     0
44.8462     0
44.8587     0
44.8712     0
44.8837     0
44.8962     0
44.9087     0
44.9212     0
44.9337     0
44.9462     0
44.9587     0
44.9712     0
44.9837     0
44.9963     0
45.0088     0
45.0213     1
45.0338     0
45.0463     0
45.0588     0
45.0713     0
45.0838     0
45.0963     0
45.1088     0
45.1213     0
45.1338     0
45.1463     0
45.1588     0
45.1714     0
45.1839     0
45.1964     0
45.2089     0
45.2214     0
45.2339     0
45.2464     0
45.2589     0
45.2714     0
45.2839     0
45.2964     0
45.3089     1
45.3214     0
 45.334     0
45.3465     0
 45.359     0
45.3715     0
 45.384     0
45.3965     0
 45.409     0
45.4215     0
 45.434     0
45.4465     0
 45.459     0
45.4715     0
 45.484     0
45.4965     0
45.5091     0
45.5216     0
45.5341     0
45.5466     0
45.5591     0
45.5716     0
45.5841     0
45.5966     0
45.6091     0
45.6216     0
45.6341     0
45.6466     0
45.6591     0
45.6716     0
45.6842     0
45.6967     0
45.7092     0
45.7217     0
45.7342     0
45.7467     0
45.7592     0
45.7717     0
45.7842     0
45.7967     0
45.8092     0
45.8217     0
45.8342     0
45.8467     0
45.8593     0
45.8718     0
45.8843     0
45.8968     0
45.9093     0
45.9218     0
45.9343     0
45.9468     0
45.9593     0
45.9718     0
45.9843     0
45.9968     0
46.0093     0
46.0219     0
46.0344     0
46.0469     0
46.0594     1
46.0719     0
46.0844     0
46.0969     0
46.1094     0
46.1219     0
46.1344     1
46.1469     0
46.1594     0
46.1719     0
46.1844     0
 46.197     0
46.2095     0
 46.222     0
46.2345     0
 46.247     0
46.2595     0
 46.272     0
46.2845     0
 46.297     0
46.3095     0
 46.322     0
46.3345     0
 46.347     0
46.3595     0
46.3721     0
46.3846     0
46.3971     0
46.4096     0
46.4221     0
46.4346     0
46.4471     0
46.4596     0
46.4721     0
46.4846     0
46.4971     0
46.5096     0
46.5221     0
46.5346     0
46.5472     0
46.5597     0
46.5722     0
46.5847     0
46.5972     0
46.6097     0
46.6222     0
46.6347     0
46.6472     0
46.6597     0
46.6722     0
46.6847     0
46.6972     0
46.7098     0
46.7223     0
46.7348     0
46.7473     0
46.7598     0
46.7723     0
46.7848     0
46.7973     0
46.8098     0
46.8223     0
46.8348     0
46.8473     0
46.8598     0
46.8723     0
46.8849     0
46.8974     0
46.9099     0
46.9224     0
46.9349     1
46.9474     0
46.9599     0
46.9724     0
46.9849     0
46.9974     0
47.0099     0
47.0224     0
47.0349     0
47.0474     0
  47.06     0
47.0725     0
 47.085     0
47.0975     0
  47.11     0
47.1225     0
 47.135     0
47.1475     0
  47.16     0
47.1725     0
 47.185     0
47.1975     0
  47.21     0
47.2225     0
47.2351     0
47.2476     0
47.2601     0
47.2726     0
47.2851     0
47.2976     0
47.3101     0
47.3226     0
47.3351     0
47.3476     0
47.3601     0
47.3726     0
47.3851     0
47.3977     0
47.4102     0
47.4227     0
47.4352     0
47.4477     0
47.4602     0
47.4727     0
47.4852     0
47.4977     0
47.5102     0
47.5227     0
47.5352     0
47.5477     0
47.5602     0
47.5728     0
47.5853     0
47.5978     0
47.6103     0
47.6228     0
47.6353     0
47.6478     0
47.6603     0
47.6728     0
47.6853     0
47.6978     0
47.7103     0
47.7228     0
47.7353     0
47.7479     0
47.7604     0
47.7729     0
47.7854     0
47.7979     0
47.8104     0
47.8229     0
47.8354     0
47.8479     0
47.8604     0
47.8729     0
47.8854     0
47.8979     0
47.9104     0
 47.923     0
47.9355     0
 47.948     0
47.9605     0
 47.973     0
47.9855     0
 47.998     0
48.0105     0
 48.023     0
48.0355     0
 48.048     0
48.0605     0
 48.073     0
48.0856     0
48.0981     0
48.1106     0
48.1231     0
48.1356     0
48.1481     0
48.1606     0
48.1731     0
48.1856     0
48.1981     0
48.2106     0
48.2231     0
48.2356     0
48.2481     0
48.2607     0
48.2732     0
48.2857     0
48.2982     0
48.3107     0
48.3232     0
48.3357     0
48.3482     0
48.3607     0
48.3732     0
48.3857     0
48.3982     0
48.4107     0
48.4232     0
48.4358     0
48.4483     0
48.4608     0
48.4733     0
48.4858     0
48.4983     0
48.5108     0
48.5233     0
48.5358     0
48.5483     0
48.5608     0
48.5733     0
48.5858     0
48.5983     0
48.6109     0
48.6234     0
48.6359     0
48.6484     0
48.6609     0
48.6734     0
48.6859     0
48.6984     0
48.7109     0
48.7234     0
48.7359     0
48.7484     0
48.7609     0
48.7735     0
 48.786     0
48.7985     0
 48.811     0
48.8235     0
 48.836     0
48.8485     0
 48.861     0
48.8735     0
 48.886     0
48.8985     0
 48.911     0
48.9235     0
 48.936     0
48.9486     0
48.9611     0
48.9736     0
48.9861     0
48.9986     0
49.0111     0
49.0236     0
49.0361     0
49.0486     0
49.0611     0
49.0736     0
49.0861     0
49.0986     0
49.1111     0
49.1237     0
49.1362     0
49.1487     0
49.1612     1
49.1737     0
49.1862     0
49.1987     0
49.2112     0
49.2237     0
49.2362     0
49.2487     0
49.2612     0
49.2737     0
49.2862     0
49.2988     0
49.3113     0
49.3238     0
49.3363     0
49.3488     0
49.3613     0
49.3738     0
49.3863     0
49.3988     0
49.4113     0
49.4238     0
49.4363     0
49.4488     0
49.4614     0
49.4739     0
49.4864     0
49.4989     0
49.5114     0
49.5239     0
49.5364     0
49.5489     0
49.5614     0
49.5739     0
49.5864     0
49.5989     0
49.6114     0
49.6239     0
49.6365     0
 49.649     0
49.6615     0
 49.674     0
49.6865     0
 49.699     0
49.7115     0
 49.724     0
49.7365     0
 49.749     0
49.7615     0
 49.774     0
49.7865     0
 49.799     0
49.8116     0
49.8241     0
49.8366     0
49.8491     0
49.8616     0
49.8741     0
49.8866     0
49.8991     0
49.9116     0
49.9241     0
49.9366     0
49.9491     0
49.9616     0
49.9741     0
49.9867     0
49.9992     0
50.0117     0
50.0242     0
