RÖNTEC GmbH Berlin, Germany
Quantax 1.2

Date: 3/3/2015 12:36:46 PM
Real time: 60852
Life time: 60002
Pulse density: 5762


Detector type: XFLASH 3001
Window type: 
Detector thickness: 0.45
Si dead layer:0

Calibration, lin.: 12.507
Calibration, abs.: -1193.107
Mn FWHM: 142.37
Fano factor: 0.105
Channels: 4096

Energy Counts
-1.1931     0
-1.1806     0
-1.1681     0
-1.1556     0
-1.1431     0
-1.1306     0
-1.1181     0
-1.1056     0
 -1.093     0
-1.0805     0
 -1.068     0
-1.0555     0
 -1.043     0
-1.0305     0
 -1.018     0
-1.0055     0
 -0.993     0
-0.9805     0
 -0.968     0
-0.9555     0
 -0.943     0
-0.9305     0
-0.9179     0
-0.9054     0
-0.8929     0
-0.8804     0
-0.8679     0
-0.8554     0
-0.8429     0
-0.8304     0
-0.8179     0
-0.8054     0
-0.7929     0
-0.7804     0
-0.7679     0
-0.7554     0
-0.7428     0
-0.7303     0
-0.7178     0
-0.7053     0
-0.6928     0
-0.6803     0
-0.6678     0
-0.6553     0
-0.6428     0
-0.6303     0
-0.6178     0
-0.6053     0
-0.5928     0
-0.5803     0
-0.5677     0
-0.5552     0
-0.5427     0
-0.5302     0
-0.5177     0
-0.5052     0
-0.4927     0
-0.4802     0
-0.4677     0
-0.4552     0
-0.4427     0
-0.4302     0
-0.4177     0
-0.4051     0
-0.3926     0
-0.3801     0
-0.3676     0
-0.3551     0
-0.3426     0
-0.3301     0
-0.3176     0
-0.3051     0
-0.2926     0
-0.2801     0
-0.2676     0
-0.2551     0
-0.2426     0
  -0.23     0
-0.2175     0
 -0.205     0
-0.1925     0
  -0.18     0
-0.1675     0
 -0.155     1
-0.1425     1
  -0.13    19
-0.1175    69
 -0.105   276
-0.0925   851
  -0.08  2374
-0.0675  6191
-0.0549 13516
-0.0424 25566
-0.0299 42486
-0.0174 61572
-0.0049 78465
 0.0076 87189
 0.0201 85186
 0.0326 72242
 0.0451 53109
 0.0576 34225
 0.0701 19398
 0.0826  9888
 0.0951  4148
 0.1076  1560
 0.1202   516
 0.1327   137
 0.1452    34
 0.1577     5
 0.1702     1
 0.1827     3
 0.1952     0
 0.2077     5
 0.2202     0
 0.2327     0
 0.2452     2
 0.2577     0
 0.2702     0
 0.2828     1
 0.2953     0
 0.3078     0
 0.3203     0
 0.3328     0
 0.3453     1
 0.3578     0
 0.3703     0
 0.3828     0
 0.3953     0
 0.4078     0
 0.4203     0
 0.4328     1
 0.4453    23
 0.4579    35
 0.4704    49
 0.4829    40
 0.4954    43
 0.5079    24
 0.5204    32
 0.5329    40
 0.5454    38
 0.5579    41
 0.5704    48
 0.5829    28
 0.5954    36
 0.6079    32
 0.6204    36
  0.633    39
 0.6455    31
  0.658    34
 0.6705    43
  0.683    32
 0.6955    32
  0.708    27
 0.7205    34
  0.733    15
 0.7455    35
  0.758    21
 0.7705    23
  0.783    29
 0.7955    22
 0.8081    24
 0.8206    22
 0.8331    29
 0.8456    32
 0.8581    33
 0.8706    27
 0.8831    24
 0.8956    21
 0.9081    32
 0.9206    27
 0.9331    23
 0.9456    28
 0.9581    20
 0.9707    22
 0.9832    21
 0.9957    16
 1.0082    16
 1.0207    25
 1.0332    15
 1.0457    20
 1.0582    18
 1.0707    18
 1.0832    17
 1.0957    16
 1.1082    24
 1.1207    24
 1.1332    14
 1.1458    24
 1.1583    18
 1.1708    19
 1.1833    19
 1.1958    19
 1.2083    22
 1.2208    21
 1.2333    18
 1.2458    28
 1.2583    26
 1.2708    16
 1.2833    15
 1.2958    20
 1.3083    19
 1.3209    19
 1.3334    22
 1.3459    17
 1.3584    27
 1.3709    17
 1.3834    15
 1.3959    17
 1.4084    22
 1.4209    17
 1.4334    15
 1.4459    19
 1.4584    19
 1.4709    14
 1.4834    20
  1.496    27
 1.5085    16
  1.521    18
 1.5335    19
  1.546    14
 1.5585    16
  1.571    19
 1.5835    16
  1.596    15
 1.6085    21
  1.621    22
 1.6335    25
  1.646    22
 1.6586    26
 1.6711    16
 1.6836    32
 1.6961    29
 1.7086    15
 1.7211    26
 1.7336    30
 1.7461    17
 1.7586    23
 1.7711    48
 1.7836    29
 1.7961    23
 1.8086    23
 1.8211    25
 1.8337    22
 1.8462    20
 1.8587    26
 1.8712    23
 1.8837    33
 1.8962    18
 1.9087    19
 1.9212    26
 1.9337    24
 1.9462    25
 1.9587    24
 1.9712    25
 1.9837    25
 1.9962    31
 2.0088    40
 2.0213    38
 2.0338    42
 2.0463    67
 2.0588   101
 2.0713   125
 2.0838   196
 2.0963   218
 2.1088   288
 2.1213   336
 2.1338   343
 2.1463   386
 2.1588   374
 2.1713   384
 2.1839   375
 2.1964   353
 2.2089   370
 2.2214   304
 2.2339   304
 2.2464   247
 2.2589   207
 2.2714   163
 2.2839   181
 2.2964   132
 2.3089   124
 2.3214   129
 2.3339    93
 2.3465   132
  2.359   130
 2.3715   119
  2.384   131
 2.3965   146
  2.409   137
 2.4215   128
  2.434   133
 2.4465   136
  2.459   147
 2.4715   113
  2.484   107
 2.4965    90
  2.509    72
 2.5216    51
 2.5341    35
 2.5466    25
 2.5591    26
 2.5716    27
 2.5841    23
 2.5966    31
 2.6091    32
 2.6216    25
 2.6341    25
 2.6466    22
 2.6591    38
 2.6716    32
 2.6841    31
 2.6967    25
 2.7092    31
 2.7217    31
 2.7342    46
 2.7467    35
 2.7592    34
 2.7717    37
 2.7842    34
 2.7967    44
 2.8092    36
 2.8217    32
 2.8342    30
 2.8467    30
 2.8592    24
 2.8718    19
 2.8843    25
 2.8968    32
 2.9093    37
 2.9218    44
 2.9343    52
 2.9468    47
 2.9593    68
 2.9718    65
 2.9843    60
 2.9968    52
 3.0093    59
 3.0218    42
 3.0344    59
 3.0469    52
 3.0594    42
 3.0719    28
 3.0844    37
 3.0969    28
 3.1094    43
 3.1219    42
 3.1344    33
 3.1469    37
 3.1594    32
 3.1719    44
 3.1844    32
 3.1969    39
 3.2095    32
  3.222    31
 3.2345    31
  3.247    35
 3.2595    29
  3.272    31
 3.2845    29
  3.297    33
 3.3095    35
  3.322    40
 3.3345    26
  3.347    48
 3.3595    29
  3.372    31
 3.3846    35
 3.3971    32
 3.4096    22
 3.4221    18
 3.4346    19
 3.4471    15
 3.4596    17
 3.4721    17
 3.4846    17
 3.4971    23
 3.5096    14
 3.5221    13
 3.5346    21
 3.5471    19
 3.5597    27
 3.5722    31
 3.5847    34
 3.5972    38
 3.6097    30
 3.6222    56
 3.6347    83
 3.6472   107
 3.6597   118
 3.6722   116
 3.6847   153
 3.6972   168
 3.7097   154
 3.7223   156
 3.7348   132
 3.7473   119
 3.7598    93
 3.7723    66
 3.7848    42
 3.7973    51
 3.8098    32
 3.8223    25
 3.8348    21
 3.8473    15
 3.8598    13
 3.8723    18
 3.8848    22
 3.8974    13
 3.9099    17
 3.9224    17
 3.9349    18
 3.9474    20
 3.9599    29
 3.9724    30
 3.9849    34
 3.9974    37
 4.0099    44
 4.0224    29
 4.0349    29
 4.0474    33
 4.0599    34
 4.0725    31
  4.085    22
 4.0975    25
   4.11    18
 4.1225    21
  4.135    17
 4.1475    13
   4.16    10
 4.1725    16
  4.185    19
 4.1975    16
   4.21    14
 4.2225    14
  4.235    23
 4.2476    18
 4.2601    13
 4.2726    19
 4.2851    14
 4.2976    12
 4.3101    18
 4.3226    13
 4.3351    11
 4.3476    14
 4.3601    25
 4.3726    16
 4.3851    15
 4.3976    20
 4.4102    27
 4.4227    21
 4.4352    20
 4.4477    22
 4.4602    24
 4.4727    28
 4.4852    28
 4.4977    22
 4.5102    46
 4.5227    23
 4.5352    29
 4.5477    27
 4.5602    28
 4.5727    31
 4.5853    32
 4.5978    22
 4.6103    18
 4.6228    23
 4.6353    22
 4.6478    18
 4.6603    21
 4.6728    22
 4.6853    16
 4.6978    24
 4.7103    13
 4.7228    19
 4.7353    23
 4.7478    24
 4.7604    26
 4.7729    12
 4.7854    31
 4.7979    21
 4.8104    24
 4.8229    28
 4.8354    23
 4.8479    16
 4.8604    29
 4.8729    31
 4.8854    17
 4.8979    20
 4.9104    24
 4.9229    20
 4.9355    23
  4.948    22
 4.9605    24
  4.973    23
 4.9855    20
  4.998    26
 5.0105    16
  5.023    21
 5.0355    18
  5.048    19
 5.0605    20
  5.073    16
 5.0855    18
 5.0981    16
 5.1106     8
 5.1231    16
 5.1356    19
 5.1481    28
 5.1606    13
 5.1731    17
 5.1856    13
 5.1981     9
 5.2106    22
 5.2231    20
 5.2356    18
 5.2481    19
 5.2606    17
 5.2732    20
 5.2857    20
 5.2982    23
 5.3107    22
 5.3232    19
 5.3357    19
 5.3482    13
 5.3607    17
 5.3732    15
 5.3857    17
 5.3982    12
 5.4107    37
 5.4232    20
 5.4357    21
 5.4483    21
 5.4608    23
 5.4733    28
 5.4858    20
 5.4983    30
 5.5108    38
 5.5233    30
 5.5358    33
 5.5483    34
 5.5608    41
 5.5733    39
 5.5858    44
 5.5983    49
 5.6108    59
 5.6234    55
 5.6359    55
 5.6484    49
 5.6609    44
 5.6734    50
 5.6859    64
 5.6984    50
 5.7109    39
 5.7234    54
 5.7359    52
 5.7484    50
 5.7609    44
 5.7734    41
  5.786    38
 5.7985    49
  5.811    36
 5.8235    30
  5.836    25
 5.8485    34
  5.861    33
 5.8735    41
  5.886    43
 5.8985    34
  5.911    41
 5.9235    39
  5.936    29
 5.9485    35
 5.9611    35
 5.9736    25
 5.9861    26
 5.9986    34
 6.0111    24
 6.0236    22
 6.0361    18
 6.0486    28
 6.0611    26
 6.0736    31
 6.0861    36
 6.0986    34
 6.1111    34
 6.1236    25
 6.1362    27
 6.1487    33
 6.1612    36
 6.1737    34
 6.1862    36
 6.1987    42
 6.2112    42
 6.2237    69
 6.2362    90
 6.2487   115
 6.2612   165
 6.2737   225
 6.2862   341
 6.2988   469
 6.3113   634
 6.3238   755
 6.3363   971
 6.3488  1220
 6.3613  1404
 6.3738  1623
 6.3863  1714
 6.3988  1754
 6.4113  1776
 6.4238  1712
 6.4363  1582
 6.4488  1375
 6.4613  1211
 6.4739   996
 6.4864   799
 6.4989   548
 6.5114   432
 6.5239   300
 6.5364   238
 6.5489   158
 6.5614    99
 6.5739    64
 6.5864    68
 6.5989    47
 6.6114    47
 6.6239    32
 6.6364    33
  6.649    34
 6.6615    32
  6.674    27
 6.6865    30
  6.699    33
 6.7115    43
  6.724    32
 6.7365    32
  6.749    27
 6.7615    32
  6.774    35
 6.7865    37
  6.799    30
 6.8115    30
 6.8241    32
 6.8366    45
 6.8491    42
 6.8616    42
 6.8741    41
 6.8866    57
 6.8991    46
 6.9116    46
 6.9241    63
 6.9366    79
 6.9491    89
 6.9616   143
 6.9741   142
 6.9867   169
 6.9992   233
 7.0117   250
 7.0242   251
 7.0367   276
 7.0492   298
 7.0617   243
 7.0742   268
 7.0867   263
 7.0992   212
 7.1117   199
 7.1242   174
 7.1367   149
 7.1492   112
 7.1618   108
 7.1743    89
 7.1868    72
 7.1993    44
 7.2118    68
 7.2243    47
 7.2368    42
 7.2493    53
 7.2618    43
 7.2743    45
 7.2868    57
 7.2993    57
 7.3118    57
 7.3243    64
 7.3369    61
 7.3494    69
 7.3619    88
 7.3744    73
 7.3869    84
 7.3994    86
 7.4119    81
 7.4244    89
 7.4369    97
 7.4494    86
 7.4619    86
 7.4744    78
 7.4869    85
 7.4994    73
  7.512    82
 7.5245    81
  7.537    64
 7.5495    79
  7.562    65
 7.5745    81
  7.587    69
 7.5995    76
  7.612    61
 7.6245    57
  7.637    67
 7.6495    54
  7.662    57
 7.6746    66
 7.6871    85
 7.6996    61
 7.7121    68
 7.7246    57
 7.7371    61
 7.7496    67
 7.7621    55
 7.7746    58
 7.7871    58
 7.7996    55
 7.8121    54
 7.8246    55
 7.8371    70
 7.8497    58
 7.8622    49
 7.8747    60
 7.8872    55
 7.8997    75
 7.9122    61
 7.9247    63
 7.9372    83
 7.9497    92
 7.9622    91
 7.9747   103
 7.9872   100
 7.9997   131
 8.0122   149
 8.0248   139
 8.0373   144
 8.0498   151
 8.0623   142
 8.0748   151
 8.0873   160
 8.0998   168
 8.1123   162
 8.1248   183
 8.1373   160
 8.1498   170
 8.1623   173
 8.1748   192
 8.1873   176
 8.1999   194
 8.2124   216
 8.2249   263
 8.2374   275
 8.2499   313
 8.2624   384
 8.2749   410
 8.2874   547
 8.2999   638
 8.3124   700
 8.3249   795
 8.3374   930
 8.3499  1034
 8.3625  1104
  8.375  1173
 8.3875  1176
    8.4  1180
 8.4125  1193
  8.425  1122
 8.4375  1033
   8.45   931
 8.4625   828
  8.475   718
 8.4875   612
    8.5   499
 8.5125   435
  8.525   321
 8.5376   276
 8.5501   209
 8.5626   205
 8.5751   169
 8.5876   137
 8.6001   119
 8.6126   116
 8.6251    95
 8.6376   102
 8.6501    75
 8.6626    96
 8.6751    80
 8.6876    93
 8.7001    78
 8.7127    83
 8.7252    94
 8.7377    82
 8.7502    93
 8.7627    88
 8.7752    77
 8.7877    78
 8.8002    81
 8.8127    88
 8.8252    76
 8.8377    78
 8.8502    93
 8.8627    73
 8.8752    91
 8.8878    71
 8.9003    86
 8.9128    82
 8.9253    85
 8.9378    82
 8.9503    69
 8.9628    79
 8.9753    78
 8.9878   102
 9.0003    97
 9.0128   100
 9.0253   120
 9.0378   121
 9.0504   137
 9.0629   132
 9.0754   183
 9.0879   194
 9.1004   213
 9.1129   264
 9.1254   284
 9.1379   351
 9.1504   392
 9.1629   359
 9.1754   374
 9.1879   395
 9.2004   390
 9.2129   354
 9.2255   350
  9.238   338
 9.2505   327
  9.263   300
 9.2755   261
  9.288   279
 9.3005   219
  9.313   217
 9.3255   214
  9.338   186
 9.3505   197
  9.363   182
 9.3755   173
  9.388   194
 9.4006   192
 9.4131   183
 9.4256   214
 9.4381   228
 9.4506   223
 9.4631   261
 9.4756   264
 9.4881   302
 9.5006   334
 9.5131   390
 9.5256   462
 9.5381   537
 9.5506   612
 9.5631   745
 9.5757   859
 9.5882  1023
 9.6007  1183
 9.6132  1393
 9.6257  1503
 9.6382  1761
 9.6507  1898
 9.6632  2005
 9.6757  2175
 9.6882  2202
 9.7007  2217
 9.7132  2193
 9.7257  2133
 9.7383  1994
 9.7508  1789
 9.7633  1644
 9.7758  1429
 9.7883  1248
 9.8008  1085
 9.8133   911
 9.8258   770
 9.8383   670
 9.8508   563
 9.8633   491
 9.8758   475
 9.8883   417
 9.9008   424
 9.9134   427
 9.9259   390
 9.9384   397
 9.9509   369
 9.9634   345
 9.9759   390
 9.9884   349
10.0009   361
10.0134   320
10.0259   299
10.0384   265
10.0509   199
10.0634   192
10.0759   191
10.0885   157
 10.101   141
10.1135   134
 10.126   126
10.1385   143
 10.151   129
10.1635    95
 10.176   123
10.1885    92
 10.201   122
10.2135   120
 10.226   124
10.2385   125
 10.251   103
10.2636   162
10.2761   187
10.2886   212
10.3011   258
10.3136   301
10.3261   375
10.3386   503
10.3511   632
10.3636   728
10.3761   927
10.3886  1200
10.4011  1465
10.4136  1671
10.4262  2302
10.4387  2624
10.4512  3032
10.4637  3502
10.4762  3960
10.4887  4394
10.5012  4763
10.5137  5166
10.5262  5424
10.5387  5505
10.5512  5513
10.5637  5391
10.5762  4979
10.5887  4564
10.6013  4198
10.6138  3673
10.6263  3151
10.6388  2635
10.6513  2223
10.6638  1723
10.6763  1345
10.6888  1026
10.7013   816
10.7138   593
10.7263   436
10.7388   330
10.7513   226
10.7638   189
10.7764   166
10.7889    99
10.8014    98
10.8139    91
10.8264    70
10.8389    61
10.8514    86
10.8639    71
10.8764    74
10.8889    50
10.9014    67
10.9139    84
10.9264    53
10.9389    63
10.9515    68
 10.964    73
10.9765    77
 10.989    75
11.0015    69
 11.014    62
11.0265    83
 11.039    64
11.0515    62
 11.064    80
11.0765    99
 11.089   102
11.1015   124
11.1141   116
11.1266   135
11.1391   124
11.1516   156
11.1641   159
11.1766   170
11.1891   202
11.2016   220
11.2141   236
11.2266   222
11.2391   246
11.2516   254
11.2641   298
11.2766   329
11.2892   358
11.3017   396
11.3142   454
11.3267   493
11.3392   569
11.3517   646
11.3642   671
11.3767   760
11.3892   868
11.4017   923
11.4142   890
11.4267   966
11.4392   933
11.4517   950
11.4643   957
11.4768   857
11.4893   843
11.5018   822
11.5143   794
11.5268   728
11.5393   717
11.5518   667
11.5643   531
11.5768   552
11.5893   573
11.6018   492
11.6143   468
11.6268   410
11.6394   339
11.6519   347
11.6644   286
11.6769   239
11.6894   189
11.7019   189
11.7144   188
11.7269   128
11.7394   129
11.7519    78
11.7644    92
11.7769    69
11.7894    92
 11.802    80
11.8145    66
 11.827    79
11.8395    63
 11.852    67
11.8645    68
 11.877    84
11.8895    74
 11.902    55
11.9145    62
 11.927    82
11.9395    74
 11.952    84
11.9645    73
11.9771    80
11.9896    85
12.0021    65
12.0146    85
12.0271    74
12.0396   103
12.0521    97
12.0646   110
12.0771   113
12.0896   137
12.1021   123
12.1146   159
12.1271   169
12.1396   151
12.1522   174
12.1647   175
12.1772   185
12.1897   208
12.2022   208
12.2147   236
12.2272   228
12.2397   266
12.2522   254
12.2647   246
12.2772   271
12.2897   286
12.3022   279
12.3147   260
12.3273   307
12.3398   278
12.3523   265
12.3648   284
12.3773   289
12.3898   329
12.4023   370
12.4148   416
12.4273   530
12.4398   594
12.4523   769
12.4648   990
12.4773  1181
12.4899  1480
12.5024  1703
12.5149  2046
12.5274  2414
12.5399  2772
12.5524  3032
12.5649  3237
12.5774  3454
12.5899  3553
12.6024  3615
12.6149  3632
12.6274  3430
12.6399  3293
12.6524  3105
 12.665  2871
12.6775  2647
  12.69  2256
12.7025  2034
 12.715  1609
12.7275  1430
  12.74  1195
12.7525  1022
 12.765   858
12.7775   698
  12.79   613
12.8025   487
 12.815   439
12.8275   394
12.8401   307
12.8526   309
12.8651   256
12.8776   239
12.8901   208
12.9026   189
12.9151   189
12.9276   179
12.9401   160
12.9526   188
12.9651   175
12.9776   166
12.9901   160
13.0026   166
13.0152   165
13.0277   147
13.0402   123
13.0527   130
13.0652   120
13.0777   109
13.0902    93
13.1027    92
13.1152    99
13.1277    93
13.1402    61
13.1527    68
13.1652    60
13.1778    52
13.1903    53
13.2028    55
13.2153    65
13.2278    58
13.2403    72
13.2528    71
13.2653    64
13.2778   114
13.2903   133
13.3028   111
13.3153   130
13.3278   179
13.3403   166
13.3529   162
13.3654   138
13.3779   142
13.3904   170
13.4029   148
13.4154   135
13.4279   107
13.4404   106
13.4529    96
13.4654    72
13.4779    69
13.4904    67
13.5029    61
13.5154    64
 13.528    48
13.5405    39
 13.553    42
13.5655    29
 13.578    39
13.5905    39
 13.603    27
13.6155    39
 13.628    44
13.6405    39
 13.653    46
13.6655    54
 13.678    52
13.6905    44
13.7031    42
13.7156    64
13.7281    50
13.7406    64
13.7531    48
13.7656    62
13.7781    43
13.7906    44
13.8031    38
13.8156    30
13.8281    40
13.8406    44
13.8531    32
13.8657    49
13.8782    29
13.8907    34
13.9032    31
13.9157    25
13.9282    16
13.9407    17
13.9532    19
13.9657    21
13.9782    19
13.9907    22
14.0032    18
14.0157    11
14.0282    19
14.0408    14
14.0533    14
14.0658    14
14.0783    15
14.0908    21
14.1033    24
14.1158    17
14.1283    21
14.1408    20
14.1533    13
14.1658    27
14.1783    37
14.1908    43
14.2033    29
14.2159    29
14.2284    37
14.2409    33
14.2534    24
14.2659    36
14.2784    46
14.2909    32
14.3034    25
14.3159    32
14.3284    33
14.3409    25
14.3534    29
14.3659    24
14.3784    23
 14.391    22
14.4035    23
 14.416    26
14.4285    28
 14.441    28
14.4535    15
 14.466    23
14.4785    30
 14.491    17
14.5035    25
 14.516    37
14.5285    45
 14.541    41
14.5536    59
14.5661    67
14.5786    70
14.5911   107
14.6036   119
14.6161   175
14.6286   175
14.6411   204
14.6536   236
14.6661   286
14.6786   327
14.6911   312
14.7036   390
14.7161   382
14.7287   382
14.7412   389
14.7537   369
14.7662   357
14.7787   399
14.7912   356
14.8037   303
14.8162   299
14.8287   253
14.8412   234
14.8537   193
14.8662   158
14.8787   126
14.8912   134
14.9038   102
14.9163    99
14.9288    83
14.9413    57
14.9538    59
14.9663    72
14.9788    68
14.9913    57
15.0038    74
15.0163    72
15.0288    88
15.0413    90
15.0538   106
15.0663   111
15.0789   111
15.0914   130
15.1039   110
15.1164   107
15.1289   135
15.1414   116
15.1539   110
15.1664   112
15.1789   133
15.1914   111
15.2039    96
15.2164   105
15.2289    97
15.2415   104
 15.254    78
15.2665    75
 15.279    62
15.2915    44
 15.304    49
15.3165    40
 15.329    34
15.3415    28
 15.354    29
15.3665    18
 15.379    21
15.3915    26
 15.404    22
15.4166    15
15.4291    24
15.4416    13
15.4541    14
15.4666    25
15.4791    19
15.4916     8
15.5041    15
15.5166    19
15.5291     9
15.5416    18
15.5541    16
15.5666    18
15.5791    18
15.5917    22
15.6042    18
15.6167    24
15.6292    24
15.6417    27
15.6542    36
15.6667    33
15.6792    35
15.6917    31
15.7042    31
15.7167    32
15.7292    28
15.7417    18
15.7542    26
15.7668    34
15.7793    30
15.7918    26
15.8043    27
15.8168    22
15.8293    31
15.8418    30
15.8543    17
15.8668    17
15.8793    22
15.8918    22
15.9043    23
15.9168    14
15.9294    11
15.9419    14
15.9544    12
15.9669    14
15.9794    11
15.9919     6
16.0044     9
16.0169    12
16.0294     9
16.0419     6
16.0544    15
16.0669    12
16.0794     9
16.0919    12
16.1045    18
 16.117    15
16.1295     6
 16.142    11
16.1545     3
 16.167     3
16.1795    10
 16.192     8
16.2045     7
 16.217     8
16.2295    10
 16.242     6
16.2545    14
 16.267     9
16.2796    12
16.2921     8
16.3046     4
16.3171    11
16.3296     9
16.3421     4
16.3546    11
16.3671    15
16.3796    12
16.3921     8
16.4046     8
16.4171    13
16.4296    10
16.4421    18
16.4547     4
16.4672     6
16.4797     5
16.4922     6
16.5047     4
16.5172     8
16.5297     7
16.5422    14
16.5547     4
16.5672     8
16.5797    20
16.5922     8
16.6047     6
16.6173    10
16.6298    11
16.6423    10
16.6548     9
16.6673     9
16.6798     8
16.6923    12
16.7048    11
16.7173     9
16.7298     8
16.7423    15
16.7548     8
16.7673     9
16.7798    14
16.7924     8
16.8049    11
16.8174    13
16.8299     7
16.8424    16
16.8549    10
16.8674    14
16.8799    15
16.8924    10
16.9049    15
16.9174     8
16.9299    13
16.9424     9
16.9549    14
16.9675     7
  16.98     8
16.9925    13
 17.005    12
17.0175     9
  17.03     7
17.0425    14
 17.055     9
17.0675    18
  17.08    13
17.0925     9
 17.105     8
17.1175    12
  17.13     6
17.1426     5
17.1551     9
17.1676    14
17.1801    13
17.1926    13
17.2051     8
17.2176     9
17.2301     7
17.2426    11
17.2551     6
17.2676    15
17.2801     7
17.2926    16
17.3052     8
17.3177    14
17.3302     7
17.3427    11
17.3552    13
17.3677    12
17.3802    13
17.3927     9
17.4052    12
17.4177    10
17.4302     6
17.4427    11
17.4552     8
17.4677     9
17.4803    18
17.4928    13
17.5053    10
17.5178    10
17.5303    14
17.5428    12
17.5553    12
17.5678    11
17.5803    14
17.5928    17
17.6053     8
17.6178    11
17.6303    13
17.6428     8
17.6554    12
17.6679    17
17.6804     8
17.6929    15
17.7054    11
17.7179    11
17.7304    10
17.7429    12
17.7554    11
17.7679     9
17.7804    10
17.7929     7
17.8054    13
17.8179    12
17.8305     7
 17.843     8
17.8555     9
 17.868     8
17.8805     5
 17.893    10
17.9055    10
 17.918    13
17.9305     9
 17.943     9
17.9555     7
 17.968     5
17.9805     8
17.9931    12
18.0056     9
18.0181     9
18.0306    14
18.0431     7
18.0556    12
18.0681     8
18.0806    12
18.0931     5
18.1056    13
18.1181     7
18.1306    13
18.1431    10
18.1556    12
18.1682    14
18.1807    10
18.1932     9
18.2057    11
18.2182    11
18.2307     9
18.2432    10
18.2557    10
18.2682    12
18.2807    12
18.2932     9
18.3057     7
18.3182     3
18.3307    15
18.3433    10
18.3558     7
18.3683    15
18.3808    14
18.3933     9
18.4058     6
18.4183     9
18.4308    10
18.4433    12
18.4558     9
18.4683     8
18.4808    11
18.4933    10
18.5058    10
18.5184    11
18.5309     6
18.5434     6
18.5559     7
18.5684    14
18.5809     7
18.5934    13
18.6059     4
18.6184     9
18.6309     6
18.6434     6
18.6559     7
18.6684    10
 18.681    13
18.6935     9
 18.706    11
18.7185     4
 18.731    10
18.7435     9
 18.756    10
18.7685     8
 18.781    15
18.7935     6
 18.806     2
18.8185     5
 18.831    10
18.8435    11
18.8561     7
18.8686     9
18.8811     8
18.8936     6
18.9061    10
18.9186    10
18.9311    12
18.9436     9
18.9561     8
18.9686    14
18.9811    14
18.9936    12
19.0061     8
19.0186     9
19.0312    10
19.0437     8
19.0562    12
19.0687    15
19.0812     8
19.0937     7
19.1062    11
19.1187    10
19.1312     7
19.1437     9
19.1562     8
19.1687     5
19.1812     5
19.1937     3
19.2063     4
19.2188     5
19.2313     4
19.2438     7
19.2563     6
19.2688    10
19.2813     2
19.2938     7
19.3063     5
19.3188     8
19.3313    10
19.3438     3
19.3563     8
19.3689     7
19.3814     8
19.3939    12
19.4064    12
19.4189     8
19.4314    11
19.4439     6
19.4564     7
19.4689     9
19.4814     8
19.4939     9
19.5064     9
19.5189     4
19.5314     8
 19.544    11
19.5565     3
 19.569     8
19.5815     7
 19.594     3
19.6065    14
 19.619     3
19.6315     6
 19.644     6
19.6565     6
 19.669     4
19.6815     7
 19.694     8
19.7065    13
19.7191     5
19.7316     5
19.7441    10
19.7566     8
19.7691     5
19.7816    11
19.7941     8
19.8066     9
19.8191    12
19.8316     8
19.8441     9
19.8566     7
19.8691     6
19.8816     7
19.8942     5
19.9067     8
19.9192     5
19.9317     9
19.9442    10
19.9567    11
19.9692     7
19.9817     6
19.9942     8
20.0067    10
20.0192     6
20.0317     7
20.0442     4
20.0568    13
20.0693     5
20.0818     7
20.0943     5
20.1068     9
20.1193     9
20.1318     7
20.1443     7
20.1568    10
20.1693     7
20.1818     9
20.1943     7
20.2068     8
20.2193     9
20.2319     8
20.2444     4
20.2569     5
20.2694     7
20.2819     5
20.2944     6
20.3069     5
20.3194     6
20.3319     6
20.3444     7
20.3569     9
20.3694     7
20.3819     7
20.3944     8
 20.407     1
20.4195     4
 20.432     3
20.4445     5
 20.457     8
20.4695     6
 20.482     7
20.4945     2
 20.507     4
20.5195     8
 20.532     6
20.5445     7
 20.557     6
20.5695     3
20.5821    10
20.5946    11
20.6071     4
20.6196     8
20.6321     7
20.6446     6
20.6571     7
20.6696     3
20.6821     4
20.6946     6
20.7071     8
20.7196     7
20.7321     6
20.7447     8
20.7572     6
20.7697     3
20.7822     7
20.7947     6
20.8072    10
20.8197     6
20.8322     4
20.8447     8
20.8572     5
20.8697     7
20.8822     9
20.8947     7
20.9072    14
20.9198     6
20.9323    11
20.9448     4
20.9573     6
20.9698     3
20.9823     7
20.9948    19
21.0073     5
21.0198    11
21.0323     9
21.0448     5
21.0573     6
21.0698     4
21.0823     6
21.0949    10
21.1074    11
21.1199     8
21.1324     6
21.1449     8
21.1574    10
21.1699     9
21.1824     7
21.1949     0
21.2074    10
21.2199    10
21.2324     8
21.2449    10
21.2574     4
  21.27     7
21.2825     5
 21.295    12
21.3075     4
  21.32     9
21.3325     4
 21.345     9
21.3575     6
  21.37     5
21.3825     6
 21.395    12
21.4075     6
  21.42     7
21.4326     9
21.4451     5
21.4576     5
21.4701     5
21.4826     6
21.4951     5
21.5076    11
21.5201    11
21.5326    10
21.5451     6
21.5576     2
21.5701     6
21.5826     4
21.5951     4
21.6077     7
21.6202     9
21.6327     9
21.6452     5
21.6577     4
21.6702     6
21.6827     5
21.6952     7
21.7077    12
21.7202     9
21.7327     6
21.7452     2
21.7577    10
21.7702     9
21.7828    10
21.7953     5
21.8078     8
21.8203    13
21.8328     8
21.8453    14
21.8578     9
21.8703     6
21.8828    14
21.8953    16
21.9078     9
21.9203    16
21.9328     9
21.9453    15
21.9579    17
21.9704    11
21.9829    21
21.9954    11
22.0079    20
22.0204    12
22.0329    19
22.0454    11
22.0579    16
22.0704     8
22.0829    18
22.0954    20
22.1079    18
22.1205    22
 22.133    13
22.1455    12
 22.158    15
22.1705    21
 22.183    12
22.1955    14
 22.208    15
22.2205    17
 22.233     9
22.2455    10
 22.258    13
22.2705     4
 22.283    10
22.2956     6
22.3081     6
22.3206     9
22.3331    11
22.3456     5
22.3581     2
22.3706    10
22.3831     8
22.3956     9
22.4081     6
22.4206     2
22.4331     8
22.4456    11
22.4581     3
22.4707     3
22.4832     3
22.4957     5
22.5082     8
22.5207     4
22.5332     4
22.5457     5
22.5582     8
22.5707     5
22.5832    11
22.5957     5
22.6082     2
22.6207     2
22.6332     6
22.6458     7
22.6583    10
22.6708     4
22.6833     1
22.6958     2
22.7083     3
22.7208     8
22.7333     8
22.7458     5
22.7583     9
22.7708     5
22.7833     3
22.7958     8
22.8084     5
22.8209     8
22.8334     7
22.8459     4
22.8584     8
22.8709     9
22.8834     7
22.8959     5
22.9084     5
22.9209     9
22.9334     8
22.9459     6
22.9584     7
22.9709     7
22.9835     8
 22.996     5
23.0085     4
 23.021     2
23.0335     5
 23.046     5
23.0585     6
 23.071     5
23.0835     4
 23.096     6
23.1085     6
 23.121     4
23.1335     7
 23.146     8
23.1586     5
23.1711     6
23.1836     4
23.1961     5
23.2086     9
23.2211     4
23.2336     1
23.2461     4
23.2586     4
23.2711     6
23.2836     3
23.2961     5
23.3086     9
23.3211     4
23.3337     6
23.3462     5
23.3587     5
23.3712     5
23.3837     1
23.3962     4
23.4087     3
23.4212     4
23.4337     4
23.4462     5
23.4587     2
23.4712     4
23.4837     4
23.4963     3
23.5088     5
23.5213     6
23.5338     3
23.5463     6
23.5588     4
23.5713     4
23.5838     6
23.5963     6
23.6088     9
23.6213     4
23.6338    11
23.6463     4
23.6588     7
23.6714     5
23.6839     6
23.6964     3
23.7089     7
23.7214     4
23.7339     0
23.7464     5
23.7589     2
23.7714     2
23.7839     1
23.7964     5
23.8089     5
23.8214     7
23.8339     5
23.8465     3
 23.859     5
23.8715     8
 23.884     3
23.8965     2
 23.909     7
23.9215     5
 23.934     2
23.9465     3
 23.959     4
23.9715     3
 23.984     5
23.9965     2
 24.009     8
24.0216     6
24.0341     6
24.0466     7
24.0591     2
24.0716     2
24.0841     5
24.0966     6
24.1091     8
24.1216     5
24.1341     3
24.1466     5
24.1591     3
24.1716     2
24.1842     6
24.1967     2
24.2092     6
24.2217     3
24.2342     4
24.2467     4
24.2592     8
24.2717     0
24.2842     1
24.2967     8
24.3092     4
24.3217     5
24.3342     7
24.3467     3
24.3593     3
24.3718     2
24.3843     6
24.3968     7
24.4093     9
24.4218     7
24.4343     5
24.4468     5
24.4593     1
24.4718     3
24.4843     8
24.4968     2
24.5093     3
24.5218     9
24.5344     7
24.5469     3
24.5594     4
24.5719     4
24.5844     7
24.5969     4
24.6094     3
24.6219     4
24.6344     2
24.6469     4
24.6594     7
24.6719     8
24.6844     3
24.6969     1
24.7095     4
 24.722     5
24.7345     4
 24.747     7
24.7595     4
 24.772     4
24.7845     8
 24.797    10
24.8095    11
 24.822     7
24.8345     4
 24.847     5
24.8595     6
24.8721     3
24.8846    11
24.8971     5
24.9096     5
24.9221     4
24.9346     5
24.9471     4
24.9596     3
24.9721     3
24.9846     2
24.9971     2
25.0096     6
25.0221     0
25.0346     6
25.0472     8
25.0597     2
25.0722     3
25.0847     4
25.0972     7
25.1097     2
25.1222     6
25.1347     5
25.1472     9
25.1597     3
25.1722     6
25.1847     4
25.1972     5
25.2097     5
25.2223     1
25.2348     3
25.2473     6
25.2598     5
25.2723     3
25.2848     6
25.2973     3
25.3098     7
25.3223     3
25.3348     3
25.3473     6
25.3598     2
25.3723     8
25.3848     4
25.3974     6
25.4099     3
25.4224     6
25.4349     2
25.4474     3
25.4599     4
25.4724     5
25.4849     3
25.4974     2
25.5099     8
25.5224     4
25.5349     7
25.5474     3
  25.56     5
25.5725     8
 25.585     1
25.5975     5
  25.61     3
25.6225     3
 25.635     7
25.6475     6
  25.66     6
25.6725     0
 25.685     4
25.6975     3
  25.71     1
25.7225     4
25.7351     2
25.7476     1
25.7601     2
25.7726     2
25.7851     5
25.7976     6
25.8101     1
25.8226     2
25.8351     3
25.8476     3
25.8601     6
25.8726     4
25.8851     1
25.8976     5
25.9102     2
25.9227     5
25.9352     3
25.9477     3
25.9602     3
25.9727     2
25.9852     3
25.9977     1
26.0102     3
26.0227     4
26.0352     2
26.0477     4
26.0602     3
26.0727     4
26.0853     2
26.0978     2
26.1103     5
26.1228     6
26.1353     5
26.1478     3
26.1603     4
26.1728     5
26.1853     5
26.1978     1
26.2103     3
26.2228     5
26.2353     4
26.2479     5
26.2604     1
26.2729     4
26.2854     1
26.2979     4
26.3104     3
26.3229     3
26.3354     0
26.3479     1
26.3604     1
26.3729     2
26.3854     5
26.3979     3
26.4104     4
 26.423     6
26.4355     3
 26.448     3
26.4605     4
 26.473     4
26.4855     0
 26.498     1
26.5105     6
 26.523     2
26.5355     4
 26.548     4
26.5605     2
 26.573     2
26.5855     3
26.5981     2
26.6106     4
26.6231     2
26.6356     2
26.6481     3
26.6606     3
26.6731     2
26.6856     3
26.6981     2
26.7106     3
26.7231     2
26.7356     1
26.7481     1
26.7606     1
26.7732     3
26.7857     4
26.7982     1
26.8107     2
26.8232     5
26.8357     7
26.8482     3
26.8607     5
26.8732     2
26.8857     0
26.8982     4
26.9107     4
26.9232     2
26.9358     6
26.9483     1
26.9608     3
26.9733     4
26.9858     2
26.9983     2
27.0108     4
27.0233     3
27.0358     4
27.0483     4
27.0608     5
27.0733     3
27.0858     1
27.0983     1
27.1109     2
27.1234     5
27.1359     6
27.1484     1
27.1609     3
27.1734     2
27.1859     2
27.1984     0
27.2109     5
27.2234     3
27.2359     2
27.2484     0
27.2609     2
27.2734     4
 27.286     4
27.2985     2
 27.311     2
27.3235     1
 27.336     3
27.3485     5
 27.361     1
27.3735     1
 27.386     3
27.3985     1
 27.411     3
27.4235     1
 27.436     3
27.4485     2
27.4611     1
27.4736     1
27.4861     4
27.4986     2
27.5111     2
27.5236     2
27.5361     1
27.5486     2
27.5611     1
27.5736     1
27.5861     2
27.5986     2
27.6111     8
27.6237     2
27.6362     4
27.6487     6
27.6612     1
27.6737     2
27.6862     6
27.6987     7
27.7112     2
27.7237     2
27.7362     4
27.7487     1
27.7612     3
27.7737     4
27.7862     3
27.7988     2
27.8113     1
27.8238     4
27.8363     3
27.8488     4
27.8613     4
27.8738     4
27.8863     2
27.8988     1
27.9113     6
27.9238     2
27.9363     5
27.9488     4
27.9613     2
27.9739     5
27.9864     1
27.9989     1
28.0114     3
28.0239     2
28.0364     2
28.0489     6
28.0614     1
28.0739     0
28.0864     4
28.0989     6
28.1114     1
28.1239     2
28.1364     4
 28.149     1
28.1615     3
 28.174     2
28.1865     3
 28.199     1
28.2115     4
 28.224     1
28.2365     2
 28.249     2
28.2615     1
 28.274     2
28.2865     1
 28.299     2
28.3116     1
28.3241     1
28.3366     1
28.3491     4
28.3616     2
28.3741     3
28.3866     1
28.3991     1
28.4116     1
28.4241     2
28.4366     2
28.4491     1
28.4616     1
28.4741     2
28.4867     2
28.4992     3
28.5117     1
28.5242     5
28.5367     1
28.5492     4
28.5617     1
28.5742     4
28.5867     2
28.5992     1
28.6117     1
28.6242     3
28.6367     3
28.6492     3
28.6618     1
28.6743     2
28.6868     3
28.6993     1
28.7118     1
28.7243     1
28.7368     2
28.7493     1
28.7618     4
28.7743     0
28.7868     4
28.7993     1
28.8118     1
28.8243     2
28.8369     0
28.8494     5
28.8619     2
28.8744     1
28.8869     2
28.8994     1
28.9119     1
28.9244     2
28.9369     0
28.9494     2
28.9619     3
28.9744     3
28.9869     1
28.9995     3
 29.012     1
29.0245     3
 29.037     2
29.0495     0
 29.062     3
29.0745     4
 29.087     2
29.0995     1
 29.112     3
29.1245     1
 29.137     1
29.1495     0
 29.162     1
29.1746     1
29.1871     2
29.1996     2
29.2121     1
29.2246     5
29.2371     3
29.2496     1
29.2621     1
29.2746     1
29.2871     2
29.2996     1
29.3121     1
29.3246     6
29.3371     1
29.3497     0
29.3622     1
29.3747     1
29.3872     1
29.3997     0
29.4122     1
29.4247     6
29.4372     2
29.4497     6
29.4622     3
29.4747     3
29.4872     3
29.4997     1
29.5123     0
29.5248     1
29.5373     2
29.5498     1
29.5623     0
29.5748     1
29.5873     3
29.5998     2
29.6123     2
29.6248     0
29.6373     1
29.6498     1
29.6623     1
29.6748     1
29.6874     2
29.6999     4
29.7124     3
29.7249     0
29.7374     1
29.7499     1
29.7624     3
29.7749     2
29.7874     2
29.7999     0
29.8124     0
29.8249     1
29.8374     1
29.8499     1
29.8625     2
 29.875     3
29.8875     1
   29.9     2
29.9125     2
 29.925     2
29.9375     1
  29.95     2
29.9625     0
 29.975     0
29.9875     2
     30     2
30.0125     2
 30.025     3
30.0376     0
30.0501     2
30.0626     3
30.0751     3
30.0876     1
30.1001     2
30.1126     3
30.1251     2
30.1376     2
30.1501     1
30.1626     1
30.1751     1
30.1876     0
30.2002     2
30.2127     0
30.2252     1
30.2377     1
30.2502     0
30.2627     1
30.2752     2
30.2877     1
30.3002     3
30.3127     1
30.3252     3
30.3377     5
30.3502     2
30.3627     1
30.3753     2
30.3878     2
30.4003     1
30.4128     2
30.4253     2
30.4378     0
30.4503     2
30.4628     2
30.4753     2
30.4878     1
30.5003     0
30.5128     0
30.5253     0
30.5378     1
30.5504     0
30.5629     1
30.5754     2
30.5879     0
30.6004     2
30.6129     1
30.6254     1
30.6379     2
30.6504     3
30.6629     4
30.6754     4
30.6879     1
30.7004     0
30.7129     1
30.7255     2
 30.738     1
30.7505     0
 30.763     3
30.7755     1
 30.788     2
30.8005     1
 30.813     1
30.8255     6
 30.838     2
30.8505     1
 30.863     2
30.8755     1
30.8881     0
30.9006     1
30.9131     0
30.9256     1
30.9381     2
30.9506     0
30.9631     0
30.9756     0
30.9881     0
31.0006     0
31.0131     4
31.0256     0
31.0381     0
31.0506     0
31.0632     1
31.0757     1
31.0882     2
31.1007     2
31.1132     2
31.1257     0
31.1382     1
31.1507     1
31.1632     1
31.1757     1
31.1882     2
31.2007     1
31.2132     2
31.2257     1
31.2383     2
31.2508     0
31.2633     1
31.2758     4
31.2883     1
31.3008     2
31.3133     1
31.3258     1
31.3383     0
31.3508     2
31.3633     3
31.3758     1
31.3883     1
31.4008     2
31.4134     1
31.4259     3
31.4384     1
31.4509     1
31.4634     1
31.4759     0
31.4884     2
31.5009     1
31.5134     1
31.5259     3
31.5384     2
31.5509     2
31.5634     0
 31.576     2
31.5885     0
 31.601     0
31.6135     1
 31.626     3
31.6385     1
 31.651     2
31.6635     2
 31.676     1
31.6885     0
 31.701     1
31.7135     0
 31.726     1
31.7385     0
31.7511     0
31.7636     1
31.7761     0
31.7886     2
31.8011     1
31.8136     2
31.8261     0
31.8386     0
31.8511     0
31.8636     1
31.8761     0
31.8886     2
31.9011     0
31.9136     1
31.9262     1
31.9387     0
31.9512     0
31.9637     0
31.9762     1
31.9887     1
32.0012     0
32.0137     2
32.0262     3
32.0387     0
32.0512     1
32.0637     1
32.0762     2
32.0887     2
32.1013     2
32.1138     1
32.1263     3
32.1388     0
32.1513     1
32.1638     1
32.1763     1
32.1888     1
32.2013     1
32.2138     1
32.2263     1
32.2388     2
32.2513     2
32.2639     0
32.2764     0
32.2889     0
32.3014     0
32.3139     2
32.3264     0
32.3389     2
32.3514     2
32.3639     1
32.3764     1
32.3889     3
32.4014     1
32.4139     1
32.4264     2
 32.439     1
32.4515     0
 32.464     0
32.4765     0
 32.489     1
32.5015     2
 32.514     0
32.5265     0
 32.539     2
32.5515     1
 32.564     0
32.5765     1
 32.589     1
32.6015     1
32.6141     1
32.6266     2
32.6391     0
32.6516     2
32.6641     1
32.6766     0
32.6891     1
32.7016     1
32.7141     3
32.7266     2
32.7391     2
32.7516     3
32.7641     0
32.7766     1
32.7892     0
32.8017     2
32.8142     3
32.8267     0
32.8392     0
32.8517     5
32.8642     0
32.8767     2
32.8892     1
32.9017     1
32.9142     1
32.9267     2
32.9392     3
32.9518     0
32.9643     1
32.9768     1
32.9893     0
33.0018     1
33.0143     0
33.0268     1
33.0393     0
33.0518     1
33.0643     3
33.0768     1
33.0893     0
33.1018     1
33.1143     2
33.1269     0
33.1394     1
33.1519     2
33.1644     0
33.1769     0
33.1894     0
33.2019     0
33.2144     1
33.2269     2
33.2394     0
33.2519     1
33.2644     1
33.2769     1
33.2894     1
 33.302     1
33.3145     0
 33.327     1
33.3395     0
 33.352     0
33.3645     1
 33.377     2
33.3895     1
 33.402     1
33.4145     2
 33.427     3
33.4395     3
 33.452     0
33.4645     1
33.4771     0
33.4896     2
33.5021     1
33.5146     2
33.5271     2
33.5396     0
33.5521     1
33.5646     0
33.5771     1
33.5896     0
33.6021     1
33.6146     3
33.6271     0
33.6397     2
33.6522     3
33.6647     2
33.6772     4
33.6897     4
33.7022     1
33.7147     1
33.7272     1
33.7397     0
33.7522     1
33.7647     0
33.7772     0
33.7897     0
33.8022     0
33.8148     0
33.8273     1
33.8398     0
33.8523     1
33.8648     3
33.8773     0
33.8898     4
33.9023     2
33.9148     0
33.9273     1
33.9398     0
33.9523     1
33.9648     1
33.9773     1
33.9899     1
34.0024     1
34.0149     3
34.0274     1
34.0399     1
34.0524     0
34.0649     0
34.0774     1
34.0899     1
34.1024     0
34.1149     0
34.1274     0
34.1399     0
34.1524     1
 34.165     0
34.1775     0
  34.19     1
34.2025     1
 34.215     1
34.2275     0
  34.24     0
34.2525     0
 34.265     1
34.2775     1
  34.29     0
34.3025     2
 34.315     1
34.3276     0
34.3401     1
34.3526     2
34.3651     0
34.3776     2
34.3901     2
34.4026     0
34.4151     1
34.4276     0
34.4401     2
34.4526     1
34.4651     0
34.4776     0
34.4901     0
34.5027     1
34.5152     0
34.5277     0
34.5402     1
34.5527     0
34.5652     1
34.5777     1
34.5902     2
34.6027     2
34.6152     3
34.6277     1
34.6402     2
34.6527     0
34.6652     0
34.6778     2
34.6903     0
34.7028     0
34.7153     2
34.7278     1
34.7403     0
34.7528     1
34.7653     0
34.7778     0
34.7903     0
34.8028     0
34.8153     1
34.8278     0
34.8403     0
34.8529     1
34.8654     0
34.8779     1
34.8904     2
34.9029     0
34.9154     0
34.9279     0
34.9404     1
34.9529     2
34.9654     0
34.9779     0
34.9904     4
35.0029     1
35.0155     2
 35.028     0
35.0405     0
 35.053     2
35.0655     0
 35.078     1
35.0905     0
 35.103     1
35.1155     1
 35.128     0
35.1405     1
 35.153     1
35.1655     0
 35.178     1
35.1906     0
35.2031     0
35.2156     2
35.2281     0
35.2406     1
35.2531     1
35.2656     0
35.2781     0
35.2906     0
35.3031     0
35.3156     0
35.3281     1
35.3406     1
35.3531     2
35.3657     0
35.3782     0
35.3907     0
35.4032     0
35.4157     1
35.4282     0
35.4407     1
35.4532     0
35.4657     0
35.4782     0
35.4907     1
35.5032     0
35.5157     0
35.5282     0
35.5408     0
35.5533     0
35.5658     0
35.5783     0
35.5908     0
35.6033     2
35.6158     0
35.6283     2
35.6408     1
35.6533     1
35.6658     2
35.6783     0
35.6908     1
35.7034     0
35.7159     1
35.7284     0
35.7409     1
35.7534     1
35.7659     1
35.7784     3
35.7909     0
35.8034     1
35.8159     0
35.8284     0
35.8409     0
35.8534     1
35.8659     0
35.8785     0
 35.891     0
35.9035     1
 35.916     1
35.9285     0
 35.941     0
35.9535     0
 35.966     0
35.9785     1
 35.991     0
36.0035     0
 36.016     1
36.0285     1
 36.041     0
36.0536     0
36.0661     0
36.0786     0
36.0911     0
36.1036     1
36.1161     3
36.1286     2
36.1411     0
36.1536     1
36.1661     0
36.1786     0
36.1911     1
36.2036     1
36.2161     1
36.2287     0
36.2412     1
36.2537     0
36.2662     0
36.2787     0
36.2912     0
36.3037     0
36.3162     0
36.3287     0
36.3412     1
36.3537     0
36.3662     1
36.3787     1
36.3913     0
36.4038     2
36.4163     1
36.4288     0
36.4413     0
36.4538     0
36.4663     0
36.4788     0
36.4913     2
36.5038     0
36.5163     0
36.5288     0
36.5413     1
36.5538     0
36.5664     0
36.5789     1
36.5914     1
36.6039     2
36.6164     0
36.6289     0
36.6414     1
36.6539     0
36.6664     2
36.6789     0
36.6914     0
36.7039     1
36.7164     0
36.7289     0
36.7415     1
 36.754     1
36.7665     1
 36.779     2
36.7915     0
 36.804     1
36.8165     0
 36.829     0
36.8415     0
 36.854     0
36.8665     0
 36.879     0
36.8915     1
 36.904     0
36.9166     0
36.9291     1
36.9416     0
36.9541     0
36.9666     0
36.9791     0
36.9916     0
37.0041     1
37.0166     0
37.0291     0
37.0416     0
37.0541     0
37.0666     1
37.0792     0
37.0917     0
37.1042     1
37.1167     1
37.1292     0
37.1417     0
37.1542     1
37.1667     0
37.1792     1
37.1917     0
37.2042     0
37.2167     0
37.2292     1
37.2417     1
37.2543     0
37.2668     1
37.2793     0
37.2918     0
37.3043     0
37.3168     0
37.3293     0
37.3418     1
37.3543     0
37.3668     0
37.3793     0
37.3918     0
37.4043     0
37.4168     1
37.4294     0
37.4419     0
37.4544     0
37.4669     1
37.4794     0
37.4919     0
37.5044     0
37.5169     0
37.5294     0
37.5419     0
37.5544     0
37.5669     1
37.5794     0
37.5919     0
37.6045     0
 37.617     0
37.6295     3
 37.642     0
37.6545     0
 37.667     1
37.6795     0
 37.692     0
37.7045     0
 37.717     1
37.7295     0
 37.742     1
37.7545     0
37.7671     0
37.7796     1
37.7921     0
37.8046     1
37.8171     1
37.8296     0
37.8421     0
37.8546     0
37.8671     0
37.8796     1
37.8921     0
37.9046     0
37.9171     0
37.9296     0
37.9422     1
37.9547     0
37.9672     1
37.9797     1
37.9922     0
38.0047     1
38.0172     0
38.0297     1
38.0422     1
38.0547     0
38.0672     0
38.0797     0
38.0922     0
38.1047     0
38.1173     0
38.1298     0
38.1423     0
38.1548     1
38.1673     0
38.1798     0
38.1923     0
38.2048     0
38.2173     2
38.2298     0
38.2423     0
38.2548     1
38.2673     0
38.2798     0
38.2924     1
38.3049     0
38.3174     1
38.3299     0
38.3424     0
38.3549     0
38.3674     0
38.3799     1
38.3924     0
38.4049     1
38.4174     0
38.4299     0
38.4424     0
 38.455     0
38.4675     1
  38.48     0
38.4925     0
 38.505     0
38.5175     0
  38.53     0
38.5425     1
 38.555     0
38.5675     0
  38.58     1
38.5925     0
 38.605     0
38.6175     0
38.6301     1
38.6426     2
38.6551     0
38.6676     0
38.6801     0
38.6926     1
38.7051     1
38.7176     0
38.7301     0
38.7426     1
38.7551     0
38.7676     0
38.7801     1
38.7926     0
38.8052     0
38.8177     0
38.8302     1
38.8427     2
38.8552     0
38.8677     0
38.8802     0
38.8927     0
38.9052     0
38.9177     1
38.9302     0
38.9427     0
38.9552     0
38.9677     1
38.9803     0
38.9928     0
39.0053     1
39.0178     0
39.0303     0
39.0428     0
39.0553     0
39.0678     0
39.0803     1
39.0928     0
39.1053     1
39.1178     0
39.1303     0
39.1429     1
39.1554     1
39.1679     0
39.1804     0
39.1929     0
39.2054     0
39.2179     0
39.2304     0
39.2429     0
39.2554     0
39.2679     0
39.2804     0
39.2929     0
39.3054     0
 39.318     0
39.3305     0
 39.343     0
39.3555     0
 39.368     0
39.3805     0
 39.393     0
39.4055     0
 39.418     0
39.4305     0
 39.443     0
39.4555     0
 39.468     0
39.4805     0
39.4931     0
39.5056     0
39.5181     0
39.5306     0
39.5431     0
39.5556     0
39.5681     0
39.5806     0
39.5931     1
39.6056     1
39.6181     0
39.6306     0
39.6431     0
39.6556     1
39.6682     0
39.6807     0
39.6932     0
39.7057     0
39.7182     0
39.7307     0
39.7432     1
39.7557     0
39.7682     0
39.7807     0
39.7932     0
39.8057     1
39.8182     0
39.8308     0
39.8433     0
39.8558     0
39.8683     0
39.8808     1
39.8933     0
39.9058     1
39.9183     1
39.9308     0
39.9433     1
39.9558     0
39.9683     0
39.9808     0
39.9933     0
40.0059     0
40.0184     0
40.0309     0
40.0434     0
40.0559     1
40.0684     0
40.0809     0
40.0934     0
40.1059     0
40.1184     0
40.1309     0
40.1434     0
40.1559     0
40.1684     0
 40.181     0
40.1935     0
 40.206     0
40.2185     1
 40.231     0
40.2435     0
 40.256     0
40.2685     0
 40.281     0
40.2935     0
 40.306     1
40.3185     1
 40.331     0
40.3435     2
40.3561     2
40.3686     1
40.3811     0
40.3936     0
40.4061     0
40.4186     0
40.4311     0
40.4436     0
40.4561     0
40.4686     0
40.4811     0
40.4936     0
40.5061     1
40.5187     0
40.5312     0
40.5437     0
40.5562     0
40.5687     1
40.5812     0
40.5937     0
40.6062     0
40.6187     0
40.6312     0
40.6437     1
40.6562     0
40.6687     1
40.6812     0
40.6938     0
40.7063     0
40.7188     0
40.7313     0
40.7438     0
40.7563     0
40.7688     0
40.7813     0
40.7938     0
40.8063     0
40.8188     0
40.8313     0
40.8438     0
40.8563     0
40.8689     0
40.8814     0
40.8939     0
40.9064     0
40.9189     0
40.9314     0
40.9439     0
40.9564     0
40.9689     0
40.9814     0
40.9939     0
41.0064     0
41.0189     0
41.0314     0
 41.044     1
41.0565     0
 41.069     0
41.0815     0
 41.094     1
41.1065     0
 41.119     0
41.1315     0
 41.144     0
41.1565     1
 41.169     0
41.1815     0
 41.194     0
41.2066     0
41.2191     0
41.2316     1
41.2441     2
41.2566     0
41.2691     0
41.2816     0
41.2941     0
41.3066     0
41.3191     0
41.3316     0
41.3441     0
41.3566     0
41.3691     0
41.3817     0
41.3942     0
41.4067     0
41.4192     0
41.4317     1
41.4442     0
41.4567     0
41.4692     0
41.4817     0
41.4942     0
41.5067     0
41.5192     0
41.5317     0
41.5442     0
41.5568     0
41.5693     0
41.5818     1
41.5943     0
41.6068     0
41.6193     0
41.6318     0
41.6443     0
41.6568     0
41.6693     0
41.6818     0
41.6943     0
41.7068     0
41.7193     0
41.7319     0
41.7444     0
41.7569     0
41.7694     0
41.7819     0
41.7944     0
41.8069     0
41.8194     1
41.8319     0
41.8444     0
41.8569     1
41.8694     0
41.8819     0
41.8945     0
 41.907     0
41.9195     0
 41.932     0
41.9445     0
 41.957     0
41.9695     0
 41.982     0
41.9945     0
 42.007     0
42.0195     0
 42.032     0
42.0445     0
 42.057     0
42.0696     0
42.0821     0
42.0946     0
42.1071     0
42.1196     0
42.1321     0
42.1446     0
42.1571     0
42.1696     0
42.1821     0
42.1946     0
42.2071     0
42.2196     0
42.2321     0
42.2447     0
42.2572     1
42.2697     0
42.2822     0
42.2947     0
42.3072     0
42.3197     0
42.3322     0
42.3447     0
42.3572     0
42.3697     0
42.3822     0
42.3947     0
42.4072     0
42.4198     0
42.4323     0
42.4448     0
42.4573     0
42.4698     0
42.4823     0
42.4948     1
42.5073     0
42.5198     0
42.5323     0
42.5448     0
42.5573     0
42.5698     0
42.5824     0
42.5949     0
42.6074     0
42.6199     0
42.6324     0
42.6449     0
42.6574     0
42.6699     0
42.6824     0
42.6949     0
42.7074     0
42.7199     0
42.7324     0
42.7449     0
42.7575     0
  42.77     0
42.7825     0
 42.795     0
42.8075     0
  42.82     0
42.8325     0
 42.845     0
42.8575     0
  42.87     0
42.8825     0
 42.895     0
42.9075     0
  42.92     0
42.9326     0
42.9451     0
42.9576     0
42.9701     0
42.9826     0
42.9951     0
43.0076     0
43.0201     0
43.0326     0
43.0451     0
43.0576     0
43.0701     0
43.0826     0
43.0951     0
43.1077     0
43.1202     0
43.1327     0
43.1452     0
43.1577     0
43.1702     0
43.1827     0
43.1952     0
43.2077     0
43.2202     0
43.2327     0
43.2452     0
43.2577     0
43.2703     0
43.2828     0
43.2953     0
43.3078     0
43.3203     0
43.3328     0
43.3453     0
43.3578     0
43.3703     0
43.3828     0
43.3953     0
43.4078     0
43.4203     0
43.4328     0
43.4454     0
43.4579     0
43.4704     0
43.4829     0
43.4954     1
43.5079     0
43.5204     0
43.5329     1
43.5454     0
43.5579     0
43.5704     0
43.5829     0
43.5954     0
43.6079     0
43.6205     0
 43.633     0
43.6455     0
 43.658     0
43.6705     0
 43.683     0
43.6955     0
 43.708     0
43.7205     0
 43.733     1
43.7455     0
 43.758     0
43.7705     0
 43.783     0
43.7956     0
43.8081     0
43.8206     0
43.8331     0
43.8456     0
43.8581     0
43.8706     0
43.8831     0
43.8956     0
43.9081     0
43.9206     0
43.9331     0
43.9456     0
43.9582     0
43.9707     0
43.9832     0
43.9957     0
44.0082     0
44.0207     0
44.0332     0
44.0457     0
44.0582     0
44.0707     0
44.0832     1
44.0957     0
44.1082     0
44.1207     0
44.1333     0
44.1458     0
44.1583     0
44.1708     0
44.1833     0
44.1958     0
44.2083     0
44.2208     0
44.2333     0
44.2458     0
44.2583     0
44.2708     0
44.2833     0
44.2958     0
44.3084     0
44.3209     0
44.3334     0
44.3459     0
44.3584     0
44.3709     0
44.3834     0
44.3959     0
44.4084     0
44.4209     0
44.4334     0
44.4459     0
44.4584     0
44.4709     0
44.4835     0
 44.496     0
44.5085     0
 44.521     0
44.5335     0
 44.546     0
44.5585     0
 44.571     0
44.5835     0
 44.596     0
44.6085     0
 44.621     0
44.6335     0
44.6461     0
44.6586     0
44.6711     0
44.6836     0
44.6961     0
44.7086     0
44.7211     0
44.7336     0
44.7461     0
44.7586     0
44.7711     0
44.7836     0
44.7961     0
44.8086     0
44.8212     0
44.8337     0
44.8462     0
44.8587     0
44.8712     0
44.8837     0
44.8962     0
44.9087     0
44.9212     0
44.9337     0
44.9462     0
44.9587     0
44.9712     0
44.9837     0
44.9963     0
45.0088     0
45.0213     0
45.0338     0
45.0463     0
45.0588     0
45.0713     0
45.0838     0
45.0963     0
45.1088     0
45.1213     0
45.1338     0
45.1463     0
45.1588     0
45.1714     0
45.1839     0
45.1964     0
45.2089     0
45.2214     0
45.2339     0
45.2464     0
45.2589     0
45.2714     0
45.2839     0
45.2964     0
45.3089     0
45.3214     0
 45.334     1
45.3465     0
 45.359     0
45.3715     0
 45.384     0
45.3965     0
 45.409     0
45.4215     0
 45.434     0
45.4465     0
 45.459     0
45.4715     0
 45.484     0
45.4965     0
45.5091     0
45.5216     0
45.5341     0
45.5466     0
45.5591     0
45.5716     0
45.5841     0
45.5966     0
45.6091     0
45.6216     0
45.6341     0
45.6466     0
45.6591     0
45.6716     0
45.6842     0
45.6967     0
45.7092     0
45.7217     0
45.7342     0
45.7467     0
45.7592     0
45.7717     0
45.7842     0
45.7967     0
45.8092     0
45.8217     0
45.8342     0
45.8467     0
45.8593     0
45.8718     0
45.8843     0
45.8968     0
45.9093     0
45.9218     0
45.9343     0
45.9468     0
45.9593     0
45.9718     0
45.9843     0
45.9968     0
46.0093     0
46.0219     0
46.0344     0
46.0469     0
46.0594     0
46.0719     0
46.0844     0
46.0969     0
46.1094     0
46.1219     0
46.1344     0
46.1469     0
46.1594     0
46.1719     0
46.1844     0
 46.197     0
46.2095     0
 46.222     0
46.2345     0
 46.247     0
46.2595     0
 46.272     0
46.2845     0
 46.297     0
46.3095     0
 46.322     0
46.3345     0
 46.347     0
46.3595     0
46.3721     0
46.3846     0
46.3971     0
46.4096     0
46.4221     0
46.4346     0
46.4471     0
46.4596     0
46.4721     0
46.4846     0
46.4971     0
46.5096     0
46.5221     0
46.5346     0
46.5472     0
46.5597     0
46.5722     0
46.5847     0
46.5972     0
46.6097     0
46.6222     0
46.6347     0
46.6472     0
46.6597     0
46.6722     0
46.6847     0
46.6972     0
46.7098     0
46.7223     0
46.7348     0
46.7473     0
46.7598     0
46.7723     0
46.7848     0
46.7973     0
46.8098     0
46.8223     0
46.8348     0
46.8473     0
46.8598     0
46.8723     0
46.8849     0
46.8974     0
46.9099     0
46.9224     0
46.9349     0
46.9474     0
46.9599     0
46.9724     0
46.9849     0
46.9974     0
47.0099     0
47.0224     0
47.0349     0
47.0474     0
  47.06     0
47.0725     0
 47.085     0
47.0975     0
  47.11     0
47.1225     0
 47.135     0
47.1475     0
  47.16     0
47.1725     0
 47.185     0
47.1975     0
  47.21     0
47.2225     0
47.2351     0
47.2476     0
47.2601     0
47.2726     0
47.2851     0
47.2976     0
47.3101     0
47.3226     0
47.3351     0
47.3476     0
47.3601     0
47.3726     0
47.3851     0
47.3977     0
47.4102     0
47.4227     0
47.4352     0
47.4477     0
47.4602     0
47.4727     0
47.4852     0
47.4977     0
47.5102     0
47.5227     0
47.5352     0
47.5477     0
47.5602     0
47.5728     0
47.5853     0
47.5978     0
47.6103     0
47.6228     0
47.6353     0
47.6478     0
47.6603     0
47.6728     0
47.6853     0
47.6978     0
47.7103     0
47.7228     0
47.7353     0
47.7479     0
47.7604     0
47.7729     0
47.7854     0
47.7979     0
47.8104     0
47.8229     0
47.8354     0
47.8479     0
47.8604     0
47.8729     0
47.8854     0
47.8979     0
47.9104     0
 47.923     0
47.9355     0
 47.948     0
47.9605     0
 47.973     0
47.9855     0
 47.998     0
48.0105     0
 48.023     0
48.0355     0
 48.048     0
48.0605     0
 48.073     0
48.0856     0
48.0981     0
48.1106     0
48.1231     0
48.1356     0
48.1481     0
48.1606     0
48.1731     0
48.1856     0
48.1981     0
48.2106     0
48.2231     0
48.2356     0
48.2481     0
48.2607     0
48.2732     0
48.2857     0
48.2982     0
48.3107     0
48.3232     0
48.3357     0
48.3482     0
48.3607     0
48.3732     0
48.3857     0
48.3982     0
48.4107     0
48.4232     0
48.4358     0
48.4483     0
48.4608     0
48.4733     0
48.4858     0
48.4983     0
48.5108     0
48.5233     0
48.5358     0
48.5483     0
48.5608     0
48.5733     0
48.5858     0
48.5983     0
48.6109     0
48.6234     0
48.6359     0
48.6484     0
48.6609     0
48.6734     0
48.6859     0
48.6984     0
48.7109     0
48.7234     0
48.7359     0
48.7484     0
48.7609     0
48.7735     0
 48.786     0
48.7985     0
 48.811     0
48.8235     0
 48.836     0
48.8485     0
 48.861     0
48.8735     0
 48.886     0
48.8985     0
 48.911     0
48.9235     0
 48.936     0
48.9486     0
48.9611     0
48.9736     0
48.9861     0
48.9986     0
49.0111     0
49.0236     0
49.0361     0
49.0486     0
49.0611     0
49.0736     0
49.0861     0
49.0986     0
49.1111     0
49.1237     0
49.1362     0
49.1487     0
49.1612     0
49.1737     0
49.1862     0
49.1987     0
49.2112     0
49.2237     0
49.2362     0
49.2487     0
49.2612     0
49.2737     0
49.2862     0
49.2988     0
49.3113     0
49.3238     0
49.3363     0
49.3488     0
49.3613     0
49.3738     0
49.3863     0
49.3988     0
49.4113     0
49.4238     0
49.4363     0
49.4488     0
49.4614     0
49.4739     0
49.4864     0
49.4989     0
49.5114     0
49.5239     0
49.5364     0
49.5489     0
49.5614     0
49.5739     0
49.5864     0
49.5989     0
49.6114     0
49.6239     0
49.6365     0
 49.649     0
49.6615     0
 49.674     0
49.6865     0
 49.699     0
49.7115     0
 49.724     0
49.7365     0
 49.749     0
49.7615     0
 49.774     0
49.7865     0
 49.799     0
49.8116     0
49.8241     0
49.8366     0
49.8491     0
49.8616     0
49.8741     0
49.8866     0
49.8991     0
49.9116     0
49.9241     0
49.9366     0
49.9491     0
49.9616     0
49.9741     0
49.9867     0
49.9992     0
50.0117     0
50.0242     0
