RÖNTEC GmbH Berlin, Germany
Quantax 1.2

Date: 3/3/2015 1:02:52 PM
Real time: 61030
Life time: 60003
Pulse density: 7093


Detector type: XFLASH 3001
Window type: 
Detector thickness: 0.45
Si dead layer:0

Calibration, lin.: 12.507
Calibration, abs.: -1193.107
Mn FWHM: 142.37
Fano factor: 0.105
Channels: 4096

Energy Counts
-1.1931     0
-1.1806     0
-1.1681     0
-1.1556     0
-1.1431     0
-1.1306     0
-1.1181     0
-1.1056     0
 -1.093     0
-1.0805     0
 -1.068     0
-1.0555     0
 -1.043     0
-1.0305     0
 -1.018     0
-1.0055     0
 -0.993     0
-0.9805     0
 -0.968     0
-0.9555     0
 -0.943     0
-0.9305     0
-0.9179     0
-0.9054     0
-0.8929     0
-0.8804     0
-0.8679     0
-0.8554     0
-0.8429     0
-0.8304     0
-0.8179     0
-0.8054     0
-0.7929     0
-0.7804     0
-0.7679     0
-0.7554     0
-0.7428     0
-0.7303     0
-0.7178     0
-0.7053     0
-0.6928     0
-0.6803     0
-0.6678     0
-0.6553     0
-0.6428     0
-0.6303     0
-0.6178     0
-0.6053     0
-0.5928     0
-0.5803     0
-0.5677     0
-0.5552     0
-0.5427     0
-0.5302     0
-0.5177     0
-0.5052     0
-0.4927     0
-0.4802     0
-0.4677     0
-0.4552     0
-0.4427     0
-0.4302     0
-0.4177     0
-0.4051     0
-0.3926     0
-0.3801     0
-0.3676     0
-0.3551     0
-0.3426     0
-0.3301     0
-0.3176     0
-0.3051     0
-0.2926     0
-0.2801     0
-0.2676     0
-0.2551     0
-0.2426     0
  -0.23     0
-0.2175     0
 -0.205     0
-0.1925     0
  -0.18     0
-0.1675     0
 -0.155     0
-0.1425     2
  -0.13    17
-0.1175    71
 -0.105   270
-0.0925   848
  -0.08  2488
-0.0675  6256
-0.0549 13456
-0.0424 25719
-0.0299 42890
-0.0174 61667
-0.0049 78871
 0.0076 87134
 0.0201 84516
 0.0326 71268
 0.0451 53199
 0.0576 34419
 0.0701 19420
 0.0826  9667
 0.0951  4208
 0.1076  1624
 0.1202   499
 0.1327   164
 0.1452    32
 0.1577     4
 0.1702     0
 0.1827     3
 0.1952     2
 0.2077     2
 0.2202     4
 0.2327     1
 0.2452     2
 0.2577     0
 0.2702     0
 0.2828     0
 0.2953     0
 0.3078     1
 0.3203     0
 0.3328     0
 0.3453     0
 0.3578     0
 0.3703     0
 0.3828     0
 0.3953     0
 0.4078     0
 0.4203     0
 0.4328     6
 0.4453    17
 0.4579    37
 0.4704    54
 0.4829    48
 0.4954    43
 0.5079    40
 0.5204    52
 0.5329    46
 0.5454    35
 0.5579    45
 0.5704    51
 0.5829    54
 0.5954    49
 0.6079    57
 0.6204    52
  0.633    47
 0.6455    49
  0.658    43
 0.6705    41
  0.683    39
 0.6955    34
  0.708    51
 0.7205    52
  0.733    42
 0.7455    56
  0.758    42
 0.7705    35
  0.783    28
 0.7955    31
 0.8081    30
 0.8206    31
 0.8331    28
 0.8456    32
 0.8581    35
 0.8706    26
 0.8831    22
 0.8956    24
 0.9081    26
 0.9206    32
 0.9331    29
 0.9456    31
 0.9581    37
 0.9707    22
 0.9832    22
 0.9957    26
 1.0082    33
 1.0207    25
 1.0332    24
 1.0457    38
 1.0582    28
 1.0707    29
 1.0832    20
 1.0957    27
 1.1082    25
 1.1207    32
 1.1332    27
 1.1458    23
 1.1583    19
 1.1708    24
 1.1833    33
 1.1958    25
 1.2083    20
 1.2208    19
 1.2333    26
 1.2458    25
 1.2583    16
 1.2708    28
 1.2833    28
 1.2958    21
 1.3083    21
 1.3209    21
 1.3334    31
 1.3459    23
 1.3584    17
 1.3709    23
 1.3834    17
 1.3959    21
 1.4084    18
 1.4209    20
 1.4334    24
 1.4459    23
 1.4584    25
 1.4709    20
 1.4834    19
  1.496    22
 1.5085    12
  1.521    20
 1.5335    31
  1.546    16
 1.5585    20
  1.571    20
 1.5835    21
  1.596    22
 1.6085    22
  1.621    25
 1.6335    26
  1.646    20
 1.6586    20
 1.6711    18
 1.6836    19
 1.6961    20
 1.7086    28
 1.7211    25
 1.7336    25
 1.7461    23
 1.7586    35
 1.7711    30
 1.7836    43
 1.7961    34
 1.8086    43
 1.8211    36
 1.8337    34
 1.8462    37
 1.8587    37
 1.8712    46
 1.8837    32
 1.8962    31
 1.9087    35
 1.9212    31
 1.9337    24
 1.9462    28
 1.9587    33
 1.9712    20
 1.9837    20
 1.9962    33
 2.0088    23
 2.0213    27
 2.0338    19
 2.0463    27
 2.0588    28
 2.0713    21
 2.0838    21
 2.0963    30
 2.1088    29
 2.1213    30
 2.1338    22
 2.1463    31
 2.1588    27
 2.1713    52
 2.1839    36
 2.1964    50
 2.2089    34
 2.2214    57
 2.2339    60
 2.2464    83
 2.2589   112
 2.2714   146
 2.2839   181
 2.2964   279
 2.3089   383
 2.3214   436
 2.3339   589
 2.3465   639
  2.359   693
 2.3715   747
  2.384   727
 2.3965   718
  2.409   700
 2.4215   649
  2.434   669
 2.4465   628
  2.459   595
 2.4715   570
  2.484   454
 2.4965   461
  2.509   348
 2.5216   274
 2.5341   188
 2.5466   154
 2.5591   101
 2.5716    93
 2.5841    69
 2.5966    61
 2.6091    81
 2.6216    64
 2.6341    63
 2.6466    72
 2.6591    82
 2.6716    86
 2.6841    62
 2.6967    75
 2.7092    74
 2.7217    51
 2.7342    43
 2.7467    36
 2.7592    37
 2.7717    32
 2.7842    23
 2.7967    34
 2.8092    17
 2.8217    23
 2.8342    18
 2.8467    27
 2.8592    19
 2.8718    30
 2.8843    25
 2.8968    25
 2.9093    43
 2.9218    40
 2.9343    45
 2.9468    44
 2.9593    43
 2.9718    61
 2.9843    52
 2.9968    43
 3.0093    38
 3.0218    34
 3.0344    48
 3.0469    42
 3.0594    40
 3.0719    39
 3.0844    53
 3.0969    38
 3.1094    40
 3.1219    34
 3.1344    50
 3.1469    44
 3.1594    50
 3.1719    41
 3.1844    42
 3.1969    48
 3.2095    40
  3.222    34
 3.2345    45
  3.247    38
 3.2595    57
  3.272    46
 3.2845    63
  3.297    63
 3.3095    63
  3.322    86
 3.3345    66
  3.347    73
 3.3595    70
  3.372    52
 3.3846    43
 3.3971    40
 3.4096    25
 3.4221    27
 3.4346    18
 3.4471    30
 3.4596    24
 3.4721    23
 3.4846    26
 3.4971    27
 3.5096    21
 3.5221    38
 3.5346    27
 3.5471    26
 3.5597    38
 3.5722    50
 3.5847    37
 3.5972    70
 3.6097    71
 3.6222   106
 3.6347   123
 3.6472   158
 3.6597   168
 3.6722   218
 3.6847   234
 3.6972   238
 3.7097   229
 3.7223   215
 3.7348   215
 3.7473   196
 3.7598   151
 3.7723   116
 3.7848    86
 3.7973    72
 3.8098    49
 3.8223    36
 3.8348    26
 3.8473    19
 3.8598    24
 3.8723    19
 3.8848    21
 3.8974    21
 3.9099    26
 3.9224    25
 3.9349    18
 3.9474    29
 3.9599    33
 3.9724    22
 3.9849    44
 3.9974    42
 4.0099    43
 4.0224    45
 4.0349    45
 4.0474    43
 4.0599    49
 4.0725    35
  4.085    33
 4.0975    32
   4.11    31
 4.1225    20
  4.135    28
 4.1475    18
   4.16    19
 4.1725    19
  4.185    15
 4.1975    15
   4.21    14
 4.2225    14
  4.235    14
 4.2476    13
 4.2601    17
 4.2726    13
 4.2851    16
 4.2976    10
 4.3101    18
 4.3226    16
 4.3351    17
 4.3476    18
 4.3601    24
 4.3726    23
 4.3851    20
 4.3976    16
 4.4102    17
 4.4227    19
 4.4352    28
 4.4477    21
 4.4602    25
 4.4727    29
 4.4852    31
 4.4977    24
 4.5102    27
 4.5227    29
 4.5352    27
 4.5477    18
 4.5602    18
 4.5727    17
 4.5853    22
 4.5978    29
 4.6103    17
 4.6228    15
 4.6353    14
 4.6478    21
 4.6603    23
 4.6728    13
 4.6853    21
 4.6978    18
 4.7103    14
 4.7228    24
 4.7353    20
 4.7478    15
 4.7604    19
 4.7729     9
 4.7854    21
 4.7979    10
 4.8104    20
 4.8229    21
 4.8354    24
 4.8479    23
 4.8604    12
 4.8729    24
 4.8854    23
 4.8979    29
 4.9104    15
 4.9229    20
 4.9355    21
  4.948    18
 4.9605    22
  4.973    18
 4.9855    22
  4.998    22
 5.0105    20
  5.023    19
 5.0355    29
  5.048    24
 5.0605    28
  5.073    18
 5.0855    20
 5.0981    27
 5.1106    20
 5.1231    21
 5.1356    19
 5.1481    21
 5.1606    23
 5.1731    25
 5.1856    22
 5.1981    22
 5.2106    20
 5.2231    24
 5.2356    18
 5.2481    34
 5.2606    20
 5.2732    30
 5.2857    17
 5.2982    21
 5.3107    22
 5.3232    19
 5.3357    18
 5.3482    24
 5.3607    24
 5.3732    24
 5.3857    19
 5.3982    21
 5.4107    26
 5.4232    24
 5.4357    17
 5.4483    22
 5.4608    28
 5.4733    27
 5.4858    26
 5.4983    23
 5.5108    20
 5.5233    32
 5.5358    19
 5.5483    25
 5.5608    21
 5.5733    21
 5.5858    30
 5.5983    29
 5.6108    33
 5.6234    37
 5.6359    28
 5.6484    25
 5.6609    38
 5.6734    17
 5.6859    23
 5.6984    33
 5.7109    26
 5.7234    18
 5.7359    32
 5.7484    27
 5.7609    26
 5.7734    27
  5.786    20
 5.7985    34
  5.811    35
 5.8235    25
  5.836    39
 5.8485    36
  5.861    37
 5.8735    39
  5.886    25
 5.8985    41
  5.911    35
 5.9235    42
  5.936    31
 5.9485    29
 5.9611    27
 5.9736    25
 5.9861    37
 5.9986    23
 6.0111    34
 6.0236    25
 6.0361    34
 6.0486    40
 6.0611    24
 6.0736    21
 6.0861    17
 6.0986    18
 6.1111    31
 6.1236    31
 6.1362    26
 6.1487    31
 6.1612    24
 6.1737    24
 6.1862    30
 6.1987    34
 6.2112    43
 6.2237    42
 6.2362    35
 6.2487    35
 6.2612    61
 6.2737    65
 6.2862    83
 6.2988    89
 6.3113   127
 6.3238   143
 6.3363   178
 6.3488   182
 6.3613   209
 6.3738   238
 6.3863   289
 6.3988   281
 6.4113   280
 6.4238   291
 6.4363   271
 6.4488   209
 6.4613   219
 6.4739   169
 6.4864   126
 6.4989    95
 6.5114   113
 6.5239    72
 6.5364    68
 6.5489    59
 6.5614    37
 6.5739    51
 6.5864    34
 6.5989    45
 6.6114    43
 6.6239    35
 6.6364    43
  6.649    25
 6.6615    30
  6.674    34
 6.6865    40
  6.699    37
 6.7115    36
  6.724    42
 6.7365    39
  6.749    44
 6.7615    46
  6.774    40
 6.7865    33
  6.799    50
 6.8115    38
 6.8241    41
 6.8366    41
 6.8491    38
 6.8616    49
 6.8741    37
 6.8866    34
 6.8991    46
 6.9116    47
 6.9241    38
 6.9366    45
 6.9491    62
 6.9616    39
 6.9741    52
 6.9867    59
 6.9992    63
 7.0117    59
 7.0242    82
 7.0367    76
 7.0492    75
 7.0617    77
 7.0742    83
 7.0867    61
 7.0992    75
 7.1117    61
 7.1242    59
 7.1367    58
 7.1492    68
 7.1618    62
 7.1743    52
 7.1868    59
 7.1993    45
 7.2118    44
 7.2243    51
 7.2368    57
 7.2493    49
 7.2618    60
 7.2743    49
 7.2868    61
 7.2993    53
 7.3118    63
 7.3243    66
 7.3369    66
 7.3494    94
 7.3619    71
 7.3744    81
 7.3869    85
 7.3994    90
 7.4119    91
 7.4244    82
 7.4369    74
 7.4494    71
 7.4619    71
 7.4744    79
 7.4869    74
 7.4994    78
  7.512    54
 7.5245    80
  7.537    58
 7.5495    54
  7.562    62
 7.5745    48
  7.587    48
 7.5995    62
  7.612    45
 7.6245    46
  7.637    56
 7.6495    49
  7.662    51
 7.6746    67
 7.6871    51
 7.6996    46
 7.7121    58
 7.7246    61
 7.7371    52
 7.7496    64
 7.7621    61
 7.7746    56
 7.7871    59
 7.7996    55
 7.8121    60
 7.8246    51
 7.8371    66
 7.8497    61
 7.8622    63
 7.8747    59
 7.8872    73
 7.8997    89
 7.9122    82
 7.9247    72
 7.9372    93
 7.9497   110
 7.9622   102
 7.9747   127
 7.9872   159
 7.9997   133
 8.0122   157
 8.0248   129
 8.0373   169
 8.0498   172
 8.0623   167
 8.0748   199
 8.0873   162
 8.0998   174
 8.1123   179
 8.1248   150
 8.1373   159
 8.1498   155
 8.1623   175
 8.1748   144
 8.1873   166
 8.1999   168
 8.2124   182
 8.2249   227
 8.2374   268
 8.2499   266
 8.2624   321
 8.2749   361
 8.2874   472
 8.2999   562
 8.3124   652
 8.3249   689
 8.3374   872
 8.3499   805
 8.3625  1030
  8.375   962
 8.3875  1092
    8.4  1048
 8.4125  1015
  8.425   940
 8.4375   865
   8.45   745
 8.4625   662
  8.475   569
 8.4875   450
    8.5   392
 8.5125   281
  8.525   215
 8.5376   198
 8.5501   161
 8.5626   138
 8.5751   112
 8.5876   113
 8.6001   115
 8.6126    85
 8.6251    93
 8.6376    89
 8.6501    88
 8.6626    87
 8.6751    82
 8.6876   101
 8.7001    92
 8.7127   111
 8.7252   102
 8.7377    93
 8.7502    95
 8.7627    80
 8.7752    98
 8.7877    88
 8.8002    92
 8.8127    98
 8.8252   103
 8.8377    84
 8.8502   102
 8.8627    94
 8.8752   100
 8.8878    80
 8.9003    86
 8.9128    81
 8.9253   116
 8.9378    84
 8.9503    87
 8.9628   100
 8.9753    87
 8.9878   107
 9.0003   120
 9.0128   115
 9.0253   145
 9.0378   161
 9.0504   151
 9.0629   216
 9.0754   252
 9.0879   301
 9.1004   302
 9.1129   406
 9.1254   426
 9.1379   459
 9.1504   520
 9.1629   552
 9.1754   563
 9.1879   598
 9.2004   586
 9.2129   580
 9.2255   525
  9.238   502
 9.2505   452
  9.263   415
 9.2755   363
  9.288   356
 9.3005   304
  9.313   262
 9.3255   244
  9.338   241
 9.3505   196
  9.363   212
 9.3755   164
  9.388   156
 9.4006   175
 9.4131   192
 9.4256   195
 9.4381   205
 9.4506   200
 9.4631   258
 9.4756   251
 9.4881   281
 9.5006   258
 9.5131   301
 9.5256   323
 9.5381   372
 9.5506   375
 9.5631   411
 9.5757   504
 9.5882   525
 9.6007   565
 9.6132   653
 9.6257   649
 9.6382   681
 9.6507   812
 9.6632   747
 9.6757   709
 9.6882   724
 9.7007   676
 9.7132   673
 9.7257   616
 9.7383   534
 9.7508   530
 9.7633   436
 9.7758   407
 9.7883   373
 9.8008   420
 9.8133   342
 9.8258   361
 9.8383   347
 9.8508   348
 9.8633   346
 9.8758   349
 9.8883   353
 9.9008   381
 9.9134   448
 9.9259   421
 9.9384   424
 9.9509   460
 9.9634   440
 9.9759   465
 9.9884   416
10.0009   405
10.0134   403
10.0259   360
10.0384   305
10.0509   256
10.0634   238
10.0759   212
10.0885   207
 10.101   185
10.1135   163
 10.126   142
10.1385   136
 10.151   120
10.1635   127
 10.176   130
10.1885   136
 10.201   127
10.2135   123
 10.226   141
10.2385   163
 10.251   169
10.2636   200
10.2761   233
10.2886   292
10.3011   355
10.3136   412
10.3261   595
10.3386   730
10.3511   975
10.3636  1198
10.3761  1576
10.3886  1960
10.4011  2404
10.4136  3009
10.4262  3658
10.4387  4368
10.4512  5080
10.4637  5919
10.4762  6920
10.4887  7600
10.5012  8318
10.5137  8935
10.5262  9280
10.5387  9420
10.5512  9306
10.5637  9172
10.5762  8636
10.5887  7973
10.6013  7285
10.6138  6413
10.6263  5367
10.6388  4693
10.6513  3865
10.6638  3010
10.6763  2330
10.6888  1833
10.7013  1371
10.7138  1024
10.7263   719
10.7388   496
10.7513   394
10.7638   261
10.7764   221
10.7889   182
10.8014   154
10.8139   115
10.8264   122
10.8389    97
10.8514    89
10.8639    84
10.8764    79
10.8889    86
10.9014    88
10.9139    79
10.9264    78
10.9389    86
10.9515    71
 10.964    75
10.9765    66
 10.989    64
11.0015    77
 11.014    76
11.0265    66
 11.039    67
11.0515    67
 11.064    58
11.0765    60
 11.089    45
11.1015    60
11.1141    69
11.1266    71
11.1391    65
11.1516    66
11.1641   115
11.1766   108
11.1891   106
11.2016   122
11.2141   144
11.2266   144
11.2391   182
11.2516   195
11.2641   239
11.2766   212
11.2892   238
11.3017   234
11.3142   260
11.3267   262
11.3392   246
11.3517   255
11.3642   223
11.3767   196
11.3892   199
11.4017   171
11.4142   176
11.4267   154
11.4392   127
11.4517   122
11.4643   108
11.4768    98
11.4893    96
11.5018    96
11.5143    86
11.5268    80
11.5393    84
11.5518    69
11.5643    83
11.5768    56
11.5893    75
11.6018    75
11.6143    74
11.6268    93
11.6394    61
11.6519    74
11.6644    76
11.6769    71
11.6894    75
11.7019    67
11.7144    65
11.7269    71
11.7394    74
11.7519    82
11.7644    89
11.7769    73
11.7894   111
 11.802    99
11.8145    95
 11.827    95
11.8395    87
 11.852    93
11.8645    95
 11.877    94
11.8895    79
 11.902    85
11.9145    92
 11.927    95
11.9395    88
 11.952    99
11.9645   102
11.9771   100
11.9896   109
12.0021   124
12.0146   106
12.0271   120
12.0396   146
12.0521   145
12.0646   191
12.0771   187
12.0896   202
12.1021   221
12.1146   213
12.1271   270
12.1396   292
12.1522   301
12.1647   265
12.1772   355
12.1897   300
12.2022   388
12.2147   405
12.2272   423
12.2397   461
12.2522   487
12.2647   508
12.2772   507
12.2897   520
12.3022   507
12.3147   523
12.3273   510
12.3398   455
12.3523   483
12.3648   499
12.3773   523
12.3898   538
12.4023   647
12.4148   744
12.4273   861
12.4398  1132
12.4523  1430
12.4648  1681
12.4773  2183
12.4899  2611
12.5024  3221
12.5149  3770
12.5274  4345
12.5399  4938
12.5524  5404
12.5649  5878
12.5774  6370
12.5899  6490
12.6024  6766
12.6149  6584
12.6274  6441
12.6399  6108
12.6524  5714
 12.665  5267
12.6775  4767
  12.69  4214
12.7025  3651
 12.715  3056
12.7275  2617
  12.74  2142
12.7525  1808
 12.765  1570
12.7775  1287
  12.79  1073
12.8025   953
 12.815   781
12.8275   750
12.8401   579
12.8526   525
12.8651   486
12.8776   419
12.8901   365
12.9026   389
12.9151   316
12.9276   316
12.9401   318
12.9526   304
12.9651   273
12.9776   269
12.9901   305
13.0026   291
13.0152   267
13.0277   258
13.0402   233
13.0527   247
13.0652   216
13.0777   200
13.0902   187
13.1027   155
13.1152   154
13.1277   122
13.1402   105
13.1527    85
13.1652    65
13.1778    64
13.1903    47
13.2028    57
13.2153    52
13.2278    35
13.2403    40
13.2528    45
13.2653    40
13.2778    44
13.2903    35
13.3028    30
13.3153    39
13.3278    30
13.3403    42
13.3529    38
13.3654    42
13.3779    30
13.3904    31
13.4029    47
13.4154    34
13.4279    29
13.4404    36
13.4529    25
13.4654    40
13.4779    20
13.4904    23
13.5029    20
13.5154    18
 13.528    17
13.5405    10
 13.553    19
13.5655    23
 13.578    23
13.5905    25
 13.603    19
13.6155    20
 13.628    19
13.6405    20
 13.653    15
13.6655    11
 13.678    17
13.6905    17
13.7031    19
13.7156    25
13.7281    28
13.7406    22
13.7531    12
13.7656    25
13.7781    23
13.7906    27
13.8031    21
13.8156    22
13.8281    19
13.8406    22
13.8531    20
13.8657    20
13.8782    27
13.8907    17
13.9032    26
13.9157    16
13.9282    23
13.9407    15
13.9532    18
13.9657    15
13.9782    18
13.9907    17
14.0032    15
14.0157    18
14.0282    17
14.0408    17
14.0533    18
14.0658    18
14.0783    16
14.0908    23
14.1033    21
14.1158    25
14.1283    26
14.1408    24
14.1533    29
14.1658    28
14.1783    36
14.1908    26
14.2033    36
14.2159    35
14.2284    46
14.2409    49
14.2534    50
14.2659    41
14.2784    43
14.2909    40
14.3034    51
14.3159    35
14.3284    46
14.3409    39
14.3534    43
14.3659    36
14.3784    37
 14.391    31
14.4035    32
 14.416    30
14.4285    38
 14.441    37
14.4535    31
 14.466    33
14.4785    35
 14.491    38
14.5035    51
 14.516    60
14.5285    64
 14.541    70
14.5536    69
14.5661   121
14.5786   150
14.5911   161
14.6036   240
14.6161   254
14.6286   330
14.6411   368
14.6536   406
14.6661   484
14.6786   520
14.6911   580
14.7036   658
14.7161   647
14.7287   657
14.7412   675
14.7537   705
14.7662   649
14.7787   656
14.7912   622
14.8037   526
14.8162   499
14.8287   482
14.8412   401
14.8537   353
14.8662   325
14.8787   248
14.8912   207
14.9038   152
14.9163   160
14.9288   138
14.9413   137
14.9538   112
14.9663   109
14.9788   112
14.9913   102
15.0038   117
15.0163   132
15.0288   145
15.0413   143
15.0538   143
15.0663   189
15.0789   177
15.0914   196
15.1039   201
15.1164   200
15.1289   209
15.1414   233
15.1539   229
15.1664   219
15.1789   219
15.1914   170
15.2039   202
15.2164   166
15.2289   153
15.2415   151
 15.254   134
15.2665   125
 15.279    95
15.2915    87
 15.304    78
15.3165    57
 15.329    51
15.3415    37
 15.354    31
15.3665    36
 15.379    38
15.3915    32
 15.404    34
15.4166    14
15.4291    17
15.4416    15
15.4541    20
15.4666    13
15.4791    13
15.4916    13
15.5041    10
15.5166    14
15.5291    15
15.5416    23
15.5541    17
15.5666    18
15.5791    18
15.5917    28
15.6042    20
15.6167    27
15.6292    23
15.6417    38
15.6542    28
15.6667    38
15.6792    25
15.6917    41
15.7042    37
15.7167    48
15.7292    43
15.7417    39
15.7542    32
15.7668    44
15.7793    38
15.7918    40
15.8043    25
15.8168    31
15.8293    34
15.8418    26
15.8543    25
15.8668    29
15.8793    21
15.8918    14
15.9043    11
15.9168    12
15.9294    10
15.9419    14
15.9544    13
15.9669     9
15.9794     8
15.9919    11
16.0044    15
16.0169    11
16.0294     7
16.0419    10
16.0544    14
16.0669    11
16.0794     8
16.0919     6
16.1045    11
 16.117     9
16.1295     8
 16.142     8
16.1545     9
 16.167    11
16.1795    10
 16.192     9
16.2045     7
 16.217     3
16.2295    10
 16.242     6
16.2545     6
 16.267    13
16.2796     9
16.2921     8
16.3046    16
16.3171    12
16.3296    12
16.3421     8
16.3546    11
16.3671    12
16.3796    10
16.3921     8
16.4046     8
16.4171     6
16.4296    13
16.4421     9
16.4547    15
16.4672    10
16.4797     3
16.4922    11
16.5047     7
16.5172     9
16.5297    13
16.5422     8
16.5547    15
16.5672     5
16.5797     8
16.5922    11
16.6047    11
16.6173    12
16.6298    10
16.6423    11
16.6548     9
16.6673    11
16.6798    11
16.6923     8
16.7048     7
16.7173    13
16.7298    12
16.7423     9
16.7548     8
16.7673    10
16.7798     9
16.7924    10
16.8049    14
16.8174     9
16.8299     9
16.8424     6
16.8549     6
16.8674    11
16.8799     9
16.8924     5
16.9049     7
16.9174    13
16.9299     8
16.9424    12
16.9549    11
16.9675     8
  16.98    12
16.9925    11
 17.005    12
17.0175    12
  17.03    10
17.0425     3
 17.055    11
17.0675    11
  17.08     7
17.0925    15
 17.105     8
17.1175     9
  17.13    16
17.1426     5
17.1551     8
17.1676     6
17.1801     7
17.1926     8
17.2051    11
17.2176    11
17.2301     5
17.2426    12
17.2551     5
17.2676     8
17.2801    11
17.2926     8
17.3052    12
17.3177    10
17.3302    12
17.3427    12
17.3552     6
17.3677     8
17.3802    15
17.3927     9
17.4052     7
17.4177     6
17.4302     8
17.4427    13
17.4552    11
17.4677    11
17.4803     6
17.4928    11
17.5053     4
17.5178     8
17.5303     9
17.5428    12
17.5553    10
17.5678     9
17.5803     8
17.5928    12
17.6053    15
17.6178    19
17.6303    12
17.6428     7
17.6554     8
17.6679     8
17.6804    11
17.6929    12
17.7054     6
17.7179    15
17.7304    16
17.7429     8
17.7554    10
17.7679     7
17.7804     7
17.7929    10
17.8054     9
17.8179    17
17.8305     8
 17.843     9
17.8555     8
 17.868     9
17.8805     8
 17.893    15
17.9055     9
 17.918     5
17.9305    10
 17.943    18
17.9555     9
 17.968    10
17.9805    11
17.9931     7
18.0056     6
18.0181    11
18.0306     9
18.0431     8
18.0556     7
18.0681    11
18.0806     7
18.0931     6
18.1056     5
18.1181     8
18.1306     3
18.1431    13
18.1556     4
18.1682     7
18.1807    14
18.1932     8
18.2057     4
18.2182     2
18.2307    14
18.2432     5
18.2557     7
18.2682     6
18.2807    15
18.2932    12
18.3057    12
18.3182     9
18.3307     6
18.3433     8
18.3558    16
18.3683     9
18.3808     8
18.3933     8
18.4058     9
18.4183     7
18.4308     8
18.4433     9
18.4558     8
18.4683     5
18.4808     7
18.4933    11
18.5058    14
18.5184     6
18.5309     6
18.5434     8
18.5559     8
18.5684     9
18.5809     5
18.5934    11
18.6059     6
18.6184    10
18.6309     9
18.6434     4
18.6559     9
18.6684    13
 18.681     4
18.6935    10
 18.706    10
18.7185     9
 18.731    11
18.7435     9
 18.756     9
18.7685    11
 18.781     1
18.7935     8
 18.806     9
18.8185     5
 18.831     7
18.8435     5
18.8561    17
18.8686    10
18.8811    13
18.8936     8
18.9061     5
18.9186     3
18.9311     5
18.9436     6
18.9561     6
18.9686     7
18.9811    14
18.9936    12
19.0061     8
19.0186    10
19.0312     6
19.0437     7
19.0562    12
19.0687     6
19.0812     7
19.0937     9
19.1062     6
19.1187     8
19.1312     6
19.1437     6
19.1562    12
19.1687     9
19.1812     8
19.1937    11
19.2063     8
19.2188    12
19.2313    11
19.2438     6
19.2563    11
19.2688     9
19.2813     7
19.2938    10
19.3063     7
19.3188     9
19.3313     7
19.3438    15
19.3563     7
19.3689     4
19.3814     5
19.3939    10
19.4064     4
19.4189     9
19.4314    14
19.4439     3
19.4564    10
19.4689     7
19.4814     9
19.4939     7
19.5064     7
19.5189    11
19.5314     5
 19.544     8
19.5565     4
 19.569     8
19.5815     5
 19.594     9
19.6065     9
 19.619     7
19.6315     7
 19.644     5
19.6565     9
 19.669     4
19.6815     8
 19.694    12
19.7065     3
19.7191     4
19.7316     4
19.7441     4
19.7566     8
19.7691     3
19.7816     3
19.7941    14
19.8066     3
19.8191     9
19.8316     6
19.8441    12
19.8566     6
19.8691     4
19.8816     5
19.8942    10
19.9067     8
19.9192     8
19.9317     4
19.9442     5
19.9567     7
19.9692     7
19.9817     7
19.9942     3
20.0067     9
20.0192     5
20.0317     9
20.0442     8
20.0568    13
20.0693    10
20.0818     9
20.0943     4
20.1068    15
20.1193     7
20.1318    10
20.1443     9
20.1568     7
20.1693    12
20.1818     7
20.1943    10
20.2068    11
20.2193     8
20.2319     4
20.2444    10
20.2569     5
20.2694     7
20.2819     5
20.2944     8
20.3069     6
20.3194    10
20.3319     8
20.3444     9
20.3569     4
20.3694     5
20.3819     6
20.3944     7
 20.407     7
20.4195     8
 20.432    11
20.4445     7
 20.457     6
20.4695     5
 20.482    13
20.4945    10
 20.507     4
20.5195     7
 20.532     5
20.5445     3
 20.557     7
20.5695     9
20.5821     9
20.5946     4
20.6071     5
20.6196     6
20.6321     8
20.6446     9
20.6571     3
20.6696    11
20.6821     5
20.6946     4
20.7071     8
20.7196     6
20.7321     7
20.7447    17
20.7572     6
20.7697     7
20.7822     7
20.7947     6
20.8072     0
20.8197    12
20.8322     9
20.8447     6
20.8572     6
20.8697     5
20.8822     5
20.8947     8
20.9072     9
20.9198     7
20.9323     9
20.9448     6
20.9573    11
20.9698    11
20.9823    11
20.9948    15
21.0073     7
21.0198     5
21.0323    13
21.0448     8
21.0573     7
21.0698    11
21.0823    12
21.0949     5
21.1074    11
21.1199    10
21.1324     4
21.1449    10
21.1574     9
21.1699     5
21.1824     8
21.1949     7
21.2074     7
21.2199     5
21.2324     6
21.2449    11
21.2574     8
  21.27     7
21.2825     5
 21.295     5
21.3075     6
  21.32     5
21.3325     4
 21.345     7
21.3575    14
  21.37     6
21.3825    11
 21.395     8
21.4075    10
  21.42     3
21.4326     9
21.4451     9
21.4576    11
21.4701     4
21.4826    11
21.4951     2
21.5076     3
21.5201     4
21.5326     6
21.5451     6
21.5576    12
21.5701     5
21.5826     9
21.5951     1
21.6077    13
21.6202    10
21.6327     6
21.6452     6
21.6577     3
21.6702     4
21.6827     2
21.6952     6
21.7077     2
21.7202     8
21.7327     8
21.7452     8
21.7577     4
21.7702     7
21.7828     6
21.7953     5
21.8078     6
21.8203     7
21.8328    10
21.8453     5
21.8578     7
21.8703     6
21.8828     4
21.8953     9
21.9078     6
21.9203     6
21.9328     3
21.9453     7
21.9579     1
21.9704    10
21.9829     1
21.9954     7
22.0079    14
22.0204    11
22.0329     6
22.0454     6
22.0579     4
22.0704    10
22.0829    12
22.0954     5
22.1079     7
22.1205    15
 22.133     6
22.1455     6
 22.158     7
22.1705     8
 22.183     3
22.1955     5
 22.208    11
22.2205     9
 22.233     8
22.2455     8
 22.258     8
22.2705    13
 22.283     6
22.2956     4
22.3081     5
22.3206     8
22.3331    12
22.3456     8
22.3581     8
22.3706     5
22.3831     5
22.3956     4
22.4081     7
22.4206     2
22.4331     7
22.4456     3
22.4581     4
22.4707     5
22.4832     4
22.4957     5
22.5082     4
22.5207     6
22.5332     6
22.5457     4
22.5582     5
22.5707     5
22.5832     5
22.5957     4
22.6082    11
22.6207     5
22.6332     5
22.6458     3
22.6583     9
22.6708     5
22.6833     5
22.6958     5
22.7083     3
22.7208     5
22.7333     4
22.7458     5
22.7583     4
22.7708     2
22.7833     6
22.7958     7
22.8084    10
22.8209     6
22.8334    10
22.8459     9
22.8584     5
22.8709    11
22.8834     8
22.8959     4
22.9084     6
22.9209     8
22.9334     6
22.9459     7
22.9584     6
22.9709     8
22.9835     5
 22.996    10
23.0085     7
 23.021     7
23.0335     7
 23.046    13
23.0585     7
 23.071     4
23.0835     8
 23.096     7
23.1085    10
 23.121    12
23.1335    10
 23.146     5
23.1586     8
23.1711     6
23.1836     6
23.1961     7
23.2086     4
23.2211     7
23.2336     6
23.2461     6
23.2586     5
23.2711     3
23.2836     5
23.2961    10
23.3086     4
23.3211     1
23.3337     5
23.3462     8
23.3587    10
23.3712     5
23.3837     6
23.3962     3
23.4087     4
23.4212     4
23.4337     7
23.4462     3
23.4587     7
23.4712     3
23.4837     4
23.4963     8
23.5088     2
23.5213     4
23.5338     6
23.5463     5
23.5588     6
23.5713     4
23.5838     3
23.5963     4
23.6088     9
23.6213     6
23.6338     2
23.6463     3
23.6588     6
23.6714     0
23.6839     5
23.6964     3
23.7089     2
23.7214     1
23.7339     4
23.7464     8
23.7589     5
23.7714     3
23.7839     1
23.7964     4
23.8089     2
23.8214     8
23.8339     7
23.8465     3
 23.859     3
23.8715     2
 23.884     4
23.8965     5
 23.909     3
23.9215     4
 23.934     1
23.9465     3
 23.959     9
23.9715     3
 23.984     2
23.9965     6
 24.009     3
24.0216     5
24.0341     4
24.0466     5
24.0591     5
24.0716     4
24.0841     9
24.0966     7
24.1091     4
24.1216     2
24.1341     5
24.1466     4
24.1591     1
24.1716     4
24.1842     1
24.1967     5
24.2092     6
24.2217     6
24.2342     3
24.2467     4
24.2592     2
24.2717     2
24.2842     4
24.2967     6
24.3092     8
24.3217     2
24.3342     8
24.3467    10
24.3593     5
24.3718     2
24.3843     5
24.3968     6
24.4093     5
24.4218     2
24.4343     4
24.4468     9
24.4593     5
24.4718     2
24.4843     5
24.4968    10
24.5093     4
24.5218     5
24.5344     4
24.5469     5
24.5594     1
24.5719     5
24.5844     6
24.5969     5
24.6094     2
24.6219     4
24.6344     2
24.6469     2
24.6594     0
24.6719     5
24.6844     2
24.6969     5
24.7095    10
 24.722     6
24.7345     7
 24.747     1
24.7595     4
 24.772     6
24.7845     6
 24.797     5
24.8095     6
 24.822     5
24.8345    10
 24.847     4
24.8595     6
24.8721     2
24.8846     4
24.8971     8
24.9096     6
24.9221     2
24.9346     7
24.9471     3
24.9596     4
24.9721     4
24.9846     8
24.9971     3
25.0096     6
25.0221     3
25.0346     5
25.0472     7
25.0597     9
25.0722     4
25.0847     2
25.0972     6
25.1097     3
25.1222     6
25.1347     9
25.1472     4
25.1597     6
25.1722     7
25.1847     4
25.1972     5
25.2097     7
25.2223     3
25.2348     3
25.2473     5
25.2598     9
25.2723    11
25.2848     7
25.2973     6
25.3098     1
25.3223     7
25.3348     5
25.3473     4
25.3598     9
25.3723     5
25.3848     4
25.3974     2
25.4099     4
25.4224     4
25.4349     7
25.4474     3
25.4599     5
25.4724     6
25.4849     2
25.4974     2
25.5099     2
25.5224     3
25.5349     7
25.5474     4
  25.56     1
25.5725     5
 25.585     3
25.5975     7
  25.61     6
25.6225     3
 25.635     6
25.6475     3
  25.66     2
25.6725     4
 25.685     4
25.6975     0
  25.71     4
25.7225     1
25.7351     2
25.7476     5
25.7601     3
25.7726     3
25.7851     2
25.7976     2
25.8101     4
25.8226     3
25.8351     2
25.8476     8
25.8601     2
25.8726     3
25.8851     2
25.8976     2
25.9102     4
25.9227     0
25.9352     1
25.9477     3
25.9602     4
25.9727     6
25.9852     7
25.9977     6
26.0102     6
26.0227     3
26.0352     3
26.0477     6
26.0602     5
26.0727     1
26.0853     4
26.0978     2
26.1103     2
26.1228     5
26.1353     5
26.1478     5
26.1603     3
26.1728     3
26.1853     7
26.1978     3
26.2103     3
26.2228     4
26.2353     3
26.2479     2
26.2604     4
26.2729     2
26.2854     4
26.2979     8
26.3104     4
26.3229     5
26.3354     3
26.3479     4
26.3604     4
26.3729     5
26.3854     5
26.3979     1
26.4104     4
 26.423     6
26.4355     1
 26.448     4
26.4605     3
 26.473     7
26.4855     4
 26.498     3
26.5105     5
 26.523     3
26.5355     1
 26.548     3
26.5605     4
 26.573     3
26.5855     1
26.5981     3
26.6106     6
26.6231     3
26.6356     0
26.6481     0
26.6606     5
26.6731     3
26.6856     4
26.6981     1
26.7106     3
26.7231     3
26.7356     4
26.7481     1
26.7606     5
26.7732     4
26.7857     1
26.7982     2
26.8107     3
26.8232     2
26.8357     2
26.8482     5
26.8607     5
26.8732     1
26.8857     3
26.8982     3
26.9107     1
26.9232     5
26.9358     2
26.9483     3
26.9608     3
26.9733     7
26.9858     7
26.9983     3
27.0108     0
27.0233     4
27.0358     5
27.0483     2
27.0608     3
27.0733     3
27.0858     4
27.0983     2
27.1109     1
27.1234     0
27.1359     1
27.1484     5
27.1609     1
27.1734     2
27.1859     3
27.1984     3
27.2109     4
27.2234     2
27.2359     5
27.2484     1
27.2609     2
27.2734     2
 27.286     2
27.2985     5
 27.311     4
27.3235     2
 27.336     7
27.3485     5
 27.361     2
27.3735     5
 27.386     1
27.3985     3
 27.411     0
27.4235     3
 27.436     3
27.4485     2
27.4611     1
27.4736     2
27.4861     5
27.4986     2
27.5111     2
27.5236     2
27.5361     4
27.5486     4
27.5611     3
27.5736     2
27.5861     3
27.5986     2
27.6111     3
27.6237     2
27.6362     8
27.6487     2
27.6612     4
27.6737     3
27.6862     4
27.6987     1
27.7112     1
27.7237     4
27.7362     3
27.7487     4
27.7612     3
27.7737     3
27.7862     3
27.7988     3
27.8113     5
27.8238     0
27.8363     3
27.8488     1
27.8613     0
27.8738     2
27.8863     3
27.8988     2
27.9113     1
27.9238     2
27.9363     1
27.9488     1
27.9613     5
27.9739     4
27.9864     0
27.9989     1
28.0114     2
28.0239     1
28.0364     2
28.0489     7
28.0614     4
28.0739     1
28.0864     3
28.0989     5
28.1114     2
28.1239     3
28.1364     5
 28.149     2
28.1615     2
 28.174     2
28.1865     6
 28.199     4
28.2115     1
 28.224     2
28.2365     3
 28.249     6
28.2615     3
 28.274     2
28.2865     1
 28.299     5
28.3116     4
28.3241     3
28.3366     0
28.3491     5
28.3616     2
28.3741     3
28.3866     2
28.3991     2
28.4116     2
28.4241     1
28.4366     4
28.4491     2
28.4616     0
28.4741     1
28.4867     4
28.4992     4
28.5117     0
28.5242     1
28.5367     4
28.5492     4
28.5617     5
28.5742     1
28.5867     2
28.5992     0
28.6117     2
28.6242     2
28.6367     3
28.6492     1
28.6618     0
28.6743     2
28.6868     2
28.6993     1
28.7118     0
28.7243     4
28.7368     1
28.7493     2
28.7618     0
28.7743     0
28.7868     4
28.7993     1
28.8118     3
28.8243     2
28.8369     3
28.8494     2
28.8619     6
28.8744     1
28.8869     2
28.8994     2
28.9119     2
28.9244     3
28.9369     4
28.9494     2
28.9619     4
28.9744     2
28.9869     1
28.9995     0
 29.012     3
29.0245     2
 29.037     1
29.0495     2
 29.062     3
29.0745     0
 29.087     3
29.0995     2
 29.112     1
29.1245     2
 29.137     2
29.1495     4
 29.162     2
29.1746     1
29.1871     3
29.1996     4
29.2121     2
29.2246     2
29.2371     2
29.2496     1
29.2621     2
29.2746     3
29.2871     2
29.2996     2
29.3121     5
29.3246     2
29.3371     0
29.3497     1
29.3622     3
29.3747     0
29.3872     2
29.3997     2
29.4122     3
29.4247     3
29.4372     3
29.4497     1
29.4622     2
29.4747     2
29.4872     3
29.4997     2
29.5123     1
29.5248     2
29.5373     2
29.5498     2
29.5623     4
29.5748     2
29.5873     2
29.5998     2
29.6123     4
29.6248     0
29.6373     4
29.6498     0
29.6623     3
29.6748     3
29.6874     2
29.6999     0
29.7124     2
29.7249     2
29.7374     3
29.7499     3
29.7624     4
29.7749     1
29.7874     4
29.7999     1
29.8124     2
29.8249     1
29.8374     1
29.8499     3
29.8625     4
 29.875     0
29.8875     1
   29.9     0
29.9125     3
 29.925     0
29.9375     3
  29.95     0
29.9625     1
 29.975     3
29.9875     3
     30     3
30.0125     1
 30.025     2
30.0376     0
30.0501     0
30.0626     1
30.0751     2
30.0876     3
30.1001     2
30.1126     2
30.1251     0
30.1376     0
30.1501     2
30.1626     1
30.1751     3
30.1876     4
30.2002     4
30.2127     1
30.2252     4
30.2377     0
30.2502     2
30.2627     0
30.2752     2
30.2877     1
30.3002     2
30.3127     0
30.3252     2
30.3377     0
30.3502     4
30.3627     2
30.3753     1
30.3878     0
30.4003     1
30.4128     2
30.4253     2
30.4378     1
30.4503     3
30.4628     2
30.4753     2
30.4878     2
30.5003     2
30.5128     2
30.5253     1
30.5378     3
30.5504     2
30.5629     0
30.5754     1
30.5879     2
30.6004     2
30.6129     2
30.6254     1
30.6379     3
30.6504     1
30.6629     4
30.6754     3
30.6879     0
30.7004     1
30.7129     2
30.7255     1
 30.738     5
30.7505     0
 30.763     1
30.7755     1
 30.788     3
30.8005     0
 30.813     1
30.8255     0
 30.838     1
30.8505     1
 30.863     0
30.8755     2
30.8881     1
30.9006     1
30.9131     0
30.9256     3
30.9381     1
30.9506     1
30.9631     0
30.9756     0
30.9881     1
31.0006     0
31.0131     1
31.0256     1
31.0381     0
31.0506     3
31.0632     3
31.0757     0
31.0882     1
31.1007     2
31.1132     2
31.1257     2
31.1382     5
31.1507     1
31.1632     0
31.1757     1
31.1882     2
31.2007     2
31.2132     1
31.2257     1
31.2383     2
31.2508     0
31.2633     3
31.2758     2
31.2883     1
31.3008     3
31.3133     1
31.3258     1
31.3383     0
31.3508     1
31.3633     1
31.3758     3
31.3883     0
31.4008     1
31.4134     3
31.4259     1
31.4384     1
31.4509     3
31.4634     0
31.4759     3
31.4884     2
31.5009     3
31.5134     0
31.5259     1
31.5384     1
31.5509     1
31.5634     2
 31.576     2
31.5885     0
 31.601     5
31.6135     1
 31.626     4
31.6385     0
 31.651     2
31.6635     1
 31.676     2
31.6885     0
 31.701     0
31.7135     0
 31.726     4
31.7385     2
31.7511     0
31.7636     1
31.7761     2
31.7886     2
31.8011     1
31.8136     3
31.8261     1
31.8386     2
31.8511     1
31.8636     1
31.8761     0
31.8886     2
31.9011     1
31.9136     1
31.9262     4
31.9387     0
31.9512     2
31.9637     1
31.9762     3
31.9887     2
32.0012     1
32.0137     1
32.0262     2
32.0387     3
32.0512     0
32.0637     1
32.0762     1
32.0887     2
32.1013     2
32.1138     1
32.1263     0
32.1388     1
32.1513     1
32.1638     1
32.1763     0
32.1888     0
32.2013     1
32.2138     3
32.2263     5
32.2388     1
32.2513     3
32.2639     0
32.2764     0
32.2889     0
32.3014     0
32.3139     0
32.3264     2
32.3389     1
32.3514     0
32.3639     1
32.3764     1
32.3889     0
32.4014     1
32.4139     3
32.4264     0
 32.439     1
32.4515     2
 32.464     1
32.4765     2
 32.489     4
32.5015     1
 32.514     1
32.5265     2
 32.539     1
32.5515     0
 32.564     1
32.5765     1
 32.589     0
32.6015     1
32.6141     1
32.6266     0
32.6391     0
32.6516     1
32.6641     0
32.6766     1
32.6891     3
32.7016     1
32.7141     3
32.7266     2
32.7391     2
32.7516     1
32.7641     2
32.7766     2
32.7892     0
32.8017     0
32.8142     1
32.8267     1
32.8392     0
32.8517     0
32.8642     2
32.8767     0
32.8892     0
32.9017     0
32.9142     2
32.9267     1
32.9392     1
32.9518     1
32.9643     0
32.9768     3
32.9893     0
33.0018     1
33.0143     1
33.0268     1
33.0393     0
33.0518     0
33.0643     1
33.0768     1
33.0893     2
33.1018     2
33.1143     2
33.1269     1
33.1394     3
33.1519     1
33.1644     1
33.1769     1
33.1894     1
33.2019     1
33.2144     0
33.2269     1
33.2394     0
33.2519     0
33.2644     0
33.2769     2
33.2894     1
 33.302     0
33.3145     0
 33.327     2
33.3395     0
 33.352     2
33.3645     0
 33.377     1
33.3895     2
 33.402     4
33.4145     1
 33.427     1
33.4395     1
 33.452     0
33.4645     0
33.4771     2
33.4896     1
33.5021     0
33.5146     0
33.5271     1
33.5396     2
33.5521     1
33.5646     0
33.5771     5
33.5896     0
33.6021     0
33.6146     1
33.6271     2
33.6397     1
33.6522     1
33.6647     1
33.6772     1
33.6897     1
33.7022     1
33.7147     0
33.7272     1
33.7397     1
33.7522     0
33.7647     0
33.7772     2
33.7897     1
33.8022     0
33.8148     0
33.8273     0
33.8398     2
33.8523     1
33.8648     1
33.8773     0
33.8898     2
33.9023     2
33.9148     0
33.9273     0
33.9398     3
33.9523     0
33.9648     1
33.9773     1
33.9899     1
34.0024     1
34.0149     0
34.0274     0
34.0399     2
34.0524     0
34.0649     0
34.0774     1
34.0899     0
34.1024     0
34.1149     1
34.1274     2
34.1399     1
34.1524     1
 34.165     1
34.1775     1
  34.19     3
34.2025     0
 34.215     0
34.2275     1
  34.24     0
34.2525     1
 34.265     2
34.2775     3
  34.29     1
34.3025     1
 34.315     1
34.3276     2
34.3401     1
34.3526     0
34.3651     0
34.3776     1
34.3901     0
34.4026     0
34.4151     2
34.4276     3
34.4401     0
34.4526     1
34.4651     2
34.4776     0
34.4901     0
34.5027     0
34.5152     1
34.5277     0
34.5402     2
34.5527     2
34.5652     2
34.5777     0
34.5902     0
34.6027     0
34.6152     0
34.6277     0
34.6402     0
34.6527     1
34.6652     1
34.6778     1
34.6903     1
34.7028     1
34.7153     0
34.7278     0
34.7403     0
34.7528     0
34.7653     0
34.7778     1
34.7903     1
34.8028     1
34.8153     0
34.8278     0
34.8403     0
34.8529     1
34.8654     1
34.8779     0
34.8904     0
34.9029     1
34.9154     1
34.9279     2
34.9404     0
34.9529     1
34.9654     0
34.9779     1
34.9904     1
35.0029     0
35.0155     1
 35.028     0
35.0405     1
 35.053     0
35.0655     1
 35.078     1
35.0905     1
 35.103     2
35.1155     0
 35.128     0
35.1405     2
 35.153     0
35.1655     2
 35.178     0
35.1906     0
35.2031     0
35.2156     1
35.2281     1
35.2406     2
35.2531     1
35.2656     1
35.2781     0
35.2906     2
35.3031     0
35.3156     1
35.3281     1
35.3406     0
35.3531     0
35.3657     0
35.3782     1
35.3907     0
35.4032     1
35.4157     0
35.4282     0
35.4407     0
35.4532     1
35.4657     0
35.4782     1
35.4907     0
35.5032     1
35.5157     1
35.5282     0
35.5408     1
35.5533     0
35.5658     0
35.5783     0
35.5908     0
35.6033     0
35.6158     1
35.6283     1
35.6408     2
35.6533     1
35.6658     0
35.6783     0
35.6908     0
35.7034     0
35.7159     1
35.7284     0
35.7409     0
35.7534     0
35.7659     0
35.7784     1
35.7909     1
35.8034     2
35.8159     1
35.8284     0
35.8409     0
35.8534     1
35.8659     1
35.8785     0
 35.891     2
35.9035     0
 35.916     1
35.9285     1
 35.941     2
35.9535     2
 35.966     1
35.9785     1
 35.991     0
36.0035     0
 36.016     0
36.0285     0
 36.041     0
36.0536     2
36.0661     0
36.0786     0
36.0911     1
36.1036     0
36.1161     0
36.1286     0
36.1411     1
36.1536     1
36.1661     0
36.1786     1
36.1911     0
36.2036     1
36.2161     1
36.2287     3
36.2412     0
36.2537     2
36.2662     0
36.2787     1
36.2912     1
36.3037     3
36.3162     1
36.3287     0
36.3412     0
36.3537     1
36.3662     0
36.3787     2
36.3913     1
36.4038     0
36.4163     0
36.4288     0
36.4413     0
36.4538     1
36.4663     0
36.4788     0
36.4913     0
36.5038     0
36.5163     0
36.5288     0
36.5413     1
36.5538     1
36.5664     1
36.5789     0
36.5914     0
36.6039     1
36.6164     0
36.6289     1
36.6414     1
36.6539     1
36.6664     1
36.6789     0
36.6914     0
36.7039     0
36.7164     0
36.7289     0
36.7415     0
 36.754     1
36.7665     0
 36.779     0
36.7915     0
 36.804     0
36.8165     0
 36.829     1
36.8415     0
 36.854     1
36.8665     0
 36.879     0
36.8915     0
 36.904     0
36.9166     0
36.9291     1
36.9416     1
36.9541     1
36.9666     0
36.9791     0
36.9916     2
37.0041     0
37.0166     0
37.0291     1
37.0416     0
37.0541     1
37.0666     1
37.0792     0
37.0917     1
37.1042     0
37.1167     1
37.1292     0
37.1417     0
37.1542     0
37.1667     1
37.1792     0
37.1917     0
37.2042     0
37.2167     0
37.2292     0
37.2417     1
37.2543     0
37.2668     0
37.2793     1
37.2918     0
37.3043     1
37.3168     0
37.3293     1
37.3418     0
37.3543     0
37.3668     0
37.3793     1
37.3918     0
37.4043     0
37.4168     0
37.4294     0
37.4419     0
37.4544     0
37.4669     1
37.4794     0
37.4919     0
37.5044     0
37.5169     0
37.5294     1
37.5419     0
37.5544     0
37.5669     0
37.5794     1
37.5919     1
37.6045     0
 37.617     0
37.6295     0
 37.642     1
37.6545     0
 37.667     0
37.6795     0
 37.692     0
37.7045     0
 37.717     1
37.7295     0
 37.742     0
37.7545     2
37.7671     0
37.7796     2
37.7921     1
37.8046     1
37.8171     0
37.8296     0
37.8421     0
37.8546     0
37.8671     0
37.8796     0
37.8921     0
37.9046     0
37.9171     0
37.9296     1
37.9422     0
37.9547     0
37.9672     0
37.9797     1
37.9922     0
38.0047     0
38.0172     0
38.0297     0
38.0422     0
38.0547     1
38.0672     0
38.0797     1
38.0922     0
38.1047     1
38.1173     1
38.1298     0
38.1423     0
38.1548     0
38.1673     0
38.1798     0
38.1923     1
38.2048     2
38.2173     0
38.2298     1
38.2423     0
38.2548     0
38.2673     0
38.2798     0
38.2924     0
38.3049     0
38.3174     1
38.3299     0
38.3424     1
38.3549     1
38.3674     1
38.3799     0
38.3924     0
38.4049     1
38.4174     0
38.4299     2
38.4424     0
 38.455     1
38.4675     1
  38.48     1
38.4925     0
 38.505     0
38.5175     0
  38.53     0
38.5425     0
 38.555     0
38.5675     0
  38.58     1
38.5925     0
 38.605     0
38.6175     0
38.6301     2
38.6426     0
38.6551     0
38.6676     1
38.6801     0
38.6926     0
38.7051     0
38.7176     0
38.7301     2
38.7426     0
38.7551     1
38.7676     1
38.7801     0
38.7926     0
38.8052     0
38.8177     1
38.8302     0
38.8427     0
38.8552     0
38.8677     0
38.8802     0
38.8927     1
38.9052     0
38.9177     2
38.9302     0
38.9427     0
38.9552     0
38.9677     0
38.9803     0
38.9928     2
39.0053     0
39.0178     0
39.0303     0
39.0428     1
39.0553     0
39.0678     0
39.0803     2
39.0928     1
39.1053     0
39.1178     1
39.1303     0
39.1429     0
39.1554     0
39.1679     0
39.1804     1
39.1929     0
39.2054     1
39.2179     0
39.2304     0
39.2429     0
39.2554     2
39.2679     1
39.2804     0
39.2929     0
39.3054     1
 39.318     0
39.3305     1
 39.343     0
39.3555     0
 39.368     0
39.3805     0
 39.393     0
39.4055     0
 39.418     1
39.4305     0
 39.443     0
39.4555     1
 39.468     0
39.4805     0
39.4931     0
39.5056     0
39.5181     0
39.5306     0
39.5431     0
39.5556     0
39.5681     0
39.5806     0
39.5931     0
39.6056     0
39.6181     0
39.6306     0
39.6431     1
39.6556     0
39.6682     1
39.6807     0
39.6932     1
39.7057     0
39.7182     0
39.7307     3
39.7432     0
39.7557     0
39.7682     0
39.7807     0
39.7932     1
39.8057     0
39.8182     1
39.8308     0
39.8433     0
39.8558     0
39.8683     1
39.8808     0
39.8933     0
39.9058     0
39.9183     0
39.9308     0
39.9433     0
39.9558     0
39.9683     0
39.9808     0
39.9933     1
40.0059     0
40.0184     0
40.0309     0
40.0434     0
40.0559     0
40.0684     0
40.0809     0
40.0934     0
40.1059     0
40.1184     0
40.1309     1
40.1434     1
40.1559     0
40.1684     0
 40.181     0
40.1935     0
 40.206     0
40.2185     0
 40.231     0
40.2435     0
 40.256     0
40.2685     0
 40.281     0
40.2935     2
 40.306     0
40.3185     0
 40.331     1
40.3435     0
40.3561     0
40.3686     0
40.3811     0
40.3936     1
40.4061     1
40.4186     0
40.4311     0
40.4436     0
40.4561     0
40.4686     0
40.4811     0
40.4936     0
40.5061     0
40.5187     0
40.5312     0
40.5437     0
40.5562     0
40.5687     0
40.5812     0
40.5937     0
40.6062     0
40.6187     0
40.6312     0
40.6437     0
40.6562     0
40.6687     0
40.6812     0
40.6938     0
40.7063     0
40.7188     0
40.7313     0
40.7438     0
40.7563     0
40.7688     0
40.7813     0
40.7938     0
40.8063     1
40.8188     1
40.8313     0
40.8438     0
40.8563     0
40.8689     0
40.8814     1
40.8939     0
40.9064     1
40.9189     0
40.9314     0
40.9439     0
40.9564     0
40.9689     0
40.9814     0
40.9939     0
41.0064     0
41.0189     0
41.0314     0
 41.044     1
41.0565     0
 41.069     0
41.0815     0
 41.094     1
41.1065     0
 41.119     1
41.1315     0
 41.144     1
41.1565     0
 41.169     0
41.1815     0
 41.194     0
41.2066     0
41.2191     0
41.2316     0
41.2441     0
41.2566     0
41.2691     1
41.2816     0
41.2941     0
41.3066     0
41.3191     0
41.3316     0
41.3441     0
41.3566     0
41.3691     0
41.3817     0
41.3942     0
41.4067     0
41.4192     1
41.4317     1
41.4442     0
41.4567     0
41.4692     0
41.4817     0
41.4942     0
41.5067     1
41.5192     0
41.5317     0
41.5442     0
41.5568     0
41.5693     0
41.5818     0
41.5943     0
41.6068     0
41.6193     0
41.6318     0
41.6443     0
41.6568     0
41.6693     1
41.6818     0
41.6943     0
41.7068     1
41.7193     0
41.7319     1
41.7444     0
41.7569     0
41.7694     0
41.7819     0
41.7944     0
41.8069     1
41.8194     0
41.8319     1
41.8444     0
41.8569     0
41.8694     0
41.8819     1
41.8945     0
 41.907     0
41.9195     1
 41.932     0
41.9445     0
 41.957     1
41.9695     0
 41.982     0
41.9945     0
 42.007     0
42.0195     0
 42.032     0
42.0445     0
 42.057     0
42.0696     0
42.0821     0
42.0946     0
42.1071     0
42.1196     1
42.1321     0
42.1446     0
42.1571     0
42.1696     0
42.1821     0
42.1946     0
42.2071     0
42.2196     0
42.2321     0
42.2447     0
42.2572     0
42.2697     0
42.2822     0
42.2947     0
42.3072     0
42.3197     0
42.3322     0
42.3447     0
42.3572     0
42.3697     1
42.3822     0
42.3947     0
42.4072     0
42.4198     0
42.4323     0
42.4448     0
42.4573     0
42.4698     0
42.4823     0
42.4948     1
42.5073     0
42.5198     0
42.5323     0
42.5448     0
42.5573     0
42.5698     1
42.5824     0
42.5949     0
42.6074     0
42.6199     0
42.6324     0
42.6449     0
42.6574     0
42.6699     0
42.6824     0
42.6949     0
42.7074     0
42.7199     0
42.7324     0
42.7449     0
42.7575     0
  42.77     0
42.7825     0
 42.795     0
42.8075     0
  42.82     0
42.8325     0
 42.845     0
42.8575     0
  42.87     0
42.8825     0
 42.895     0
42.9075     1
  42.92     0
42.9326     0
42.9451     0
42.9576     0
42.9701     0
42.9826     0
42.9951     0
43.0076     0
43.0201     0
43.0326     0
43.0451     0
43.0576     0
43.0701     0
43.0826     0
43.0951     0
43.1077     1
43.1202     0
43.1327     0
43.1452     0
43.1577     0
43.1702     0
43.1827     0
43.1952     0
43.2077     0
43.2202     0
43.2327     0
43.2452     0
43.2577     0
43.2703     0
43.2828     0
43.2953     0
43.3078     0
43.3203     0
43.3328     0
43.3453     0
43.3578     0
43.3703     0
43.3828     0
43.3953     0
43.4078     0
43.4203     0
43.4328     0
43.4454     0
43.4579     0
43.4704     0
43.4829     0
43.4954     0
43.5079     1
43.5204     0
43.5329     0
43.5454     0
43.5579     0
43.5704     0
43.5829     0
43.5954     0
43.6079     0
43.6205     0
 43.633     0
43.6455     0
 43.658     0
43.6705     0
 43.683     0
43.6955     0
 43.708     0
43.7205     0
 43.733     0
43.7455     0
 43.758     0
43.7705     0
 43.783     0
43.7956     0
43.8081     0
43.8206     0
43.8331     0
43.8456     1
43.8581     0
43.8706     0
43.8831     0
43.8956     0
43.9081     0
43.9206     0
43.9331     0
43.9456     0
43.9582     0
43.9707     0
43.9832     0
43.9957     0
44.0082     0
44.0207     0
44.0332     0
44.0457     0
44.0582     0
44.0707     0
44.0832     1
44.0957     0
44.1082     0
44.1207     0
44.1333     0
44.1458     0
44.1583     0
44.1708     0
44.1833     0
44.1958     0
44.2083     0
44.2208     0
44.2333     0
44.2458     0
44.2583     1
44.2708     0
44.2833     0
44.2958     0
44.3084     0
44.3209     0
44.3334     0
44.3459     0
44.3584     0
44.3709     0
44.3834     0
44.3959     0
44.4084     0
44.4209     0
44.4334     0
44.4459     0
44.4584     0
44.4709     0
44.4835     0
 44.496     0
44.5085     0
 44.521     0
44.5335     0
 44.546     0
44.5585     0
 44.571     0
44.5835     0
 44.596     0
44.6085     0
 44.621     0
44.6335     0
44.6461     0
44.6586     0
44.6711     0
44.6836     0
44.6961     0
44.7086     1
44.7211     0
44.7336     0
44.7461     0
44.7586     0
44.7711     0
44.7836     0
44.7961     0
44.8086     0
44.8212     0
44.8337     0
44.8462     0
44.8587     0
44.8712     1
44.8837     0
44.8962     0
44.9087     0
44.9212     0
44.9337     0
44.9462     0
44.9587     0
44.9712     0
44.9837     0
44.9963     0
45.0088     0
45.0213     0
45.0338     0
45.0463     0
45.0588     0
45.0713     0
45.0838     0
45.0963     0
45.1088     0
45.1213     0
45.1338     0
45.1463     0
45.1588     0
45.1714     0
45.1839     0
45.1964     0
45.2089     0
45.2214     0
45.2339     0
45.2464     0
45.2589     0
45.2714     0
45.2839     0
45.2964     0
45.3089     0
45.3214     0
 45.334     1
45.3465     0
 45.359     0
45.3715     0
 45.384     0
45.3965     0
 45.409     0
45.4215     0
 45.434     0
45.4465     1
 45.459     0
45.4715     0
 45.484     0
45.4965     0
45.5091     0
45.5216     0
45.5341     0
45.5466     0
45.5591     0
45.5716     0
45.5841     0
45.5966     0
45.6091     0
45.6216     0
45.6341     0
45.6466     0
45.6591     0
45.6716     0
45.6842     0
45.6967     0
45.7092     0
45.7217     0
45.7342     0
45.7467     0
45.7592     0
45.7717     0
45.7842     0
45.7967     0
45.8092     0
45.8217     0
45.8342     0
45.8467     0
45.8593     0
45.8718     0
45.8843     0
45.8968     0
45.9093     0
45.9218     0
45.9343     0
45.9468     0
45.9593     0
45.9718     0
45.9843     0
45.9968     0
46.0093     0
46.0219     0
46.0344     0
46.0469     0
46.0594     0
46.0719     0
46.0844     0
46.0969     0
46.1094     0
46.1219     0
46.1344     0
46.1469     0
46.1594     0
46.1719     0
46.1844     0
 46.197     0
46.2095     0
 46.222     0
46.2345     0
 46.247     0
46.2595     0
 46.272     0
46.2845     0
 46.297     0
46.3095     0
 46.322     0
46.3345     0
 46.347     0
46.3595     0
46.3721     0
46.3846     0
46.3971     0
46.4096     0
46.4221     0
46.4346     0
46.4471     0
46.4596     0
46.4721     0
46.4846     0
46.4971     0
46.5096     0
46.5221     0
46.5346     0
46.5472     0
46.5597     0
46.5722     0
46.5847     0
46.5972     0
46.6097     0
46.6222     0
46.6347     0
46.6472     0
46.6597     0
46.6722     0
46.6847     0
46.6972     0
46.7098     0
46.7223     0
46.7348     0
46.7473     0
46.7598     0
46.7723     0
46.7848     0
46.7973     0
46.8098     0
46.8223     0
46.8348     0
46.8473     0
46.8598     0
46.8723     0
46.8849     0
46.8974     0
46.9099     0
46.9224     0
46.9349     0
46.9474     0
46.9599     0
46.9724     0
46.9849     0
46.9974     0
47.0099     0
47.0224     0
47.0349     0
47.0474     1
  47.06     0
47.0725     0
 47.085     0
47.0975     0
  47.11     0
47.1225     0
 47.135     0
47.1475     0
  47.16     0
47.1725     0
 47.185     0
47.1975     0
  47.21     0
47.2225     0
47.2351     0
47.2476     0
47.2601     0
47.2726     0
47.2851     0
47.2976     0
47.3101     0
47.3226     0
47.3351     0
47.3476     0
47.3601     0
47.3726     0
47.3851     0
47.3977     0
47.4102     0
47.4227     0
47.4352     0
47.4477     0
47.4602     0
47.4727     0
47.4852     0
47.4977     0
47.5102     0
47.5227     0
47.5352     0
47.5477     0
47.5602     0
47.5728     0
47.5853     0
47.5978     0
47.6103     0
47.6228     0
47.6353     0
47.6478     0
47.6603     0
47.6728     0
47.6853     0
47.6978     0
47.7103     0
47.7228     0
47.7353     0
47.7479     0
47.7604     0
47.7729     0
47.7854     0
47.7979     0
47.8104     0
47.8229     0
47.8354     0
47.8479     0
47.8604     0
47.8729     0
47.8854     0
47.8979     0
47.9104     0
 47.923     0
47.9355     0
 47.948     0
47.9605     0
 47.973     0
47.9855     0
 47.998     0
48.0105     0
 48.023     0
48.0355     0
 48.048     0
48.0605     0
 48.073     0
48.0856     0
48.0981     0
48.1106     0
48.1231     0
48.1356     0
48.1481     0
48.1606     0
48.1731     0
48.1856     0
48.1981     0
48.2106     0
48.2231     0
48.2356     0
48.2481     0
48.2607     0
48.2732     0
48.2857     0
48.2982     0
48.3107     0
48.3232     0
48.3357     0
48.3482     0
48.3607     0
48.3732     0
48.3857     0
48.3982     0
48.4107     0
48.4232     0
48.4358     0
48.4483     0
48.4608     0
48.4733     0
48.4858     0
48.4983     0
48.5108     0
48.5233     0
48.5358     0
48.5483     0
48.5608     0
48.5733     0
48.5858     0
48.5983     0
48.6109     0
48.6234     0
48.6359     0
48.6484     0
48.6609     0
48.6734     0
48.6859     0
48.6984     0
48.7109     0
48.7234     0
48.7359     0
48.7484     0
48.7609     0
48.7735     0
 48.786     0
48.7985     0
 48.811     0
48.8235     0
 48.836     0
48.8485     0
 48.861     0
48.8735     0
 48.886     0
48.8985     0
 48.911     0
48.9235     0
 48.936     0
48.9486     0
48.9611     0
48.9736     0
48.9861     0
48.9986     0
49.0111     0
49.0236     0
49.0361     0
49.0486     0
49.0611     0
49.0736     0
49.0861     0
49.0986     0
49.1111     0
49.1237     0
49.1362     0
49.1487     0
49.1612     0
49.1737     0
49.1862     0
49.1987     0
49.2112     0
49.2237     0
49.2362     0
49.2487     0
49.2612     0
49.2737     0
49.2862     0
49.2988     0
49.3113     0
49.3238     0
49.3363     0
49.3488     0
49.3613     0
49.3738     0
49.3863     0
49.3988     0
49.4113     0
49.4238     0
49.4363     0
49.4488     0
49.4614     0
49.4739     0
49.4864     0
49.4989     0
49.5114     0
49.5239     0
49.5364     0
49.5489     0
49.5614     0
49.5739     0
49.5864     0
49.5989     0
49.6114     0
49.6239     0
49.6365     0
 49.649     0
49.6615     0
 49.674     0
49.6865     0
 49.699     0
49.7115     0
 49.724     0
49.7365     0
 49.749     0
49.7615     0
 49.774     0
49.7865     0
 49.799     0
49.8116     0
49.8241     0
49.8366     0
49.8491     0
49.8616     0
49.8741     0
49.8866     0
49.8991     0
49.9116     0
49.9241     0
49.9366     0
49.9491     0
49.9616     0
49.9741     0
49.9867     0
49.9992     0
50.0117     0
50.0242     0
