RÖNTEC GmbH Berlin, Germany
Quantax 1.2

Date: 3/3/2015 12:51:52 PM
Real time: 60502
Life time: 60002
Pulse density: 3498


Detector type: XFLASH 3001
Window type: 
Detector thickness: 0.45
Si dead layer:0

Calibration, lin.: 12.507
Calibration, abs.: -1193.107
Mn FWHM: 142.37
Fano factor: 0.105
Channels: 4096

Energy Counts
-1.1931     0
-1.1806     0
-1.1681     0
-1.1556     0
-1.1431     0
-1.1306     0
-1.1181     0
-1.1056     0
 -1.093     0
-1.0805     0
 -1.068     0
-1.0555     0
 -1.043     0
-1.0305     0
 -1.018     0
-1.0055     0
 -0.993     0
-0.9805     0
 -0.968     0
-0.9555     0
 -0.943     0
-0.9305     0
-0.9179     0
-0.9054     0
-0.8929     0
-0.8804     0
-0.8679     0
-0.8554     0
-0.8429     0
-0.8304     0
-0.8179     0
-0.8054     0
-0.7929     0
-0.7804     0
-0.7679     0
-0.7554     0
-0.7428     0
-0.7303     0
-0.7178     0
-0.7053     0
-0.6928     0
-0.6803     0
-0.6678     0
-0.6553     0
-0.6428     0
-0.6303     0
-0.6178     0
-0.6053     0
-0.5928     0
-0.5803     0
-0.5677     0
-0.5552     0
-0.5427     0
-0.5302     0
-0.5177     0
-0.5052     0
-0.4927     0
-0.4802     0
-0.4677     0
-0.4552     0
-0.4427     0
-0.4302     0
-0.4177     0
-0.4051     0
-0.3926     0
-0.3801     0
-0.3676     0
-0.3551     0
-0.3426     0
-0.3301     0
-0.3176     0
-0.3051     0
-0.2926     0
-0.2801     0
-0.2676     0
-0.2551     0
-0.2426     0
  -0.23     0
-0.2175     0
 -0.205     0
-0.1925     0
  -0.18     0
-0.1675     1
 -0.155     0
-0.1425     5
  -0.13    22
-0.1175    82
 -0.105   252
-0.0925   909
  -0.08  2508
-0.0675  6199
-0.0549 13707
-0.0424 25724
-0.0299 42946
-0.0174 62259
-0.0049 78473
 0.0076 87319
 0.0201 84865
 0.0326 71543
 0.0451 53033
 0.0576 33982
 0.0701 19363
 0.0826  9739
 0.0951  4160
 0.1076  1520
 0.1202   534
 0.1327   147
 0.1452    36
 0.1577     8
 0.1702     4
 0.1827     2
 0.1952     0
 0.2077     1
 0.2202     1
 0.2327     0
 0.2452     0
 0.2577     0
 0.2702     0
 0.2828     0
 0.2953     0
 0.3078     1
 0.3203     1
 0.3328     0
 0.3453     1
 0.3578     0
 0.3703     0
 0.3828     0
 0.3953     0
 0.4078     0
 0.4203     0
 0.4328     2
 0.4453     9
 0.4579    23
 0.4704    29
 0.4829    35
 0.4954    23
 0.5079    25
 0.5204    19
 0.5329    31
 0.5454    16
 0.5579    20
 0.5704    27
 0.5829    25
 0.5954    25
 0.6079    32
 0.6204    23
  0.633    20
 0.6455    20
  0.658    39
 0.6705    28
  0.683    18
 0.6955    14
  0.708    16
 0.7205    22
  0.733    19
 0.7455    18
  0.758    20
 0.7705    21
  0.783    17
 0.7955    17
 0.8081    15
 0.8206    15
 0.8331    16
 0.8456    15
 0.8581    12
 0.8706    10
 0.8831    14
 0.8956    11
 0.9081    17
 0.9206    12
 0.9331    17
 0.9456    16
 0.9581    22
 0.9707    13
 0.9832    15
 0.9957    13
 1.0082    12
 1.0207    15
 1.0332    19
 1.0457    16
 1.0582    16
 1.0707    10
 1.0832    19
 1.0957    10
 1.1082    12
 1.1207    15
 1.1332    13
 1.1458    10
 1.1583    15
 1.1708     7
 1.1833    10
 1.1958    16
 1.2083    15
 1.2208    18
 1.2333    17
 1.2458    13
 1.2583    15
 1.2708    13
 1.2833    16
 1.2958    13
 1.3083    10
 1.3209    17
 1.3334    19
 1.3459     9
 1.3584    18
 1.3709    13
 1.3834    13
 1.3959    14
 1.4084     9
 1.4209    13
 1.4334    24
 1.4459    17
 1.4584     8
 1.4709    25
 1.4834    16
  1.496    18
 1.5085    15
  1.521    13
 1.5335    16
  1.546    23
 1.5585    20
  1.571    21
 1.5835    14
  1.596    24
 1.6085    23
  1.621    20
 1.6335    22
  1.646    15
 1.6586    17
 1.6711    16
 1.6836    31
 1.6961    39
 1.7086    31
 1.7211    50
 1.7336    50
 1.7461    40
 1.7586    55
 1.7711    46
 1.7836    47
 1.7961    29
 1.8086    33
 1.8211    25
 1.8337    26
 1.8462    15
 1.8587    14
 1.8712    18
 1.8837    14
 1.8962    21
 1.9087    14
 1.9212    14
 1.9337    12
 1.9462    19
 1.9587    22
 1.9712    17
 1.9837    23
 1.9962    20
 2.0088    17
 2.0213    29
 2.0338    18
 2.0463    11
 2.0588     8
 2.0713     7
 2.0838    12
 2.0963    12
 2.1088    12
 2.1213     6
 2.1338     7
 2.1463    11
 2.1588    13
 2.1713    16
 2.1839    18
 2.1964    13
 2.2089    18
 2.2214    17
 2.2339    25
 2.2464    27
 2.2589    35
 2.2714    66
 2.2839    73
 2.2964    91
 2.3089    98
 2.3214    90
 2.3339    98
 2.3465   107
  2.359    90
 2.3715    86
  2.384    77
 2.3965    62
  2.409    61
 2.4215    68
  2.434    40
 2.4465    65
  2.459    54
 2.4715    50
  2.484    53
 2.4965    31
  2.509    34
 2.5216    26
 2.5341    26
 2.5466    19
 2.5591    21
 2.5716    28
 2.5841    26
 2.5966    32
 2.6091    28
 2.6216    27
 2.6341    31
 2.6466    34
 2.6591    37
 2.6716    26
 2.6841    31
 2.6967    23
 2.7092    26
 2.7217    20
 2.7342    11
 2.7467     7
 2.7592    22
 2.7717    13
 2.7842    12
 2.7967     8
 2.8092    14
 2.8217     9
 2.8342    10
 2.8467     8
 2.8592    12
 2.8718    17
 2.8843    14
 2.8968    12
 2.9093    25
 2.9218    40
 2.9343    24
 2.9468    41
 2.9593    45
 2.9718    45
 2.9843    40
 2.9968    22
 3.0093    22
 3.0218    38
 3.0344    25
 3.0469    21
 3.0594    16
 3.0719    21
 3.0844    18
 3.0969    18
 3.1094    21
 3.1219    15
 3.1344    20
 3.1469    16
 3.1594    17
 3.1719    28
 3.1844    32
 3.1969    51
 3.2095    75
  3.222    85
 3.2345   136
  3.247   174
 3.2595   264
  3.272   332
 3.2845   421
  3.297   499
 3.3095   521
  3.322   594
 3.3345   536
  3.347   534
 3.3595   491
  3.372   394
 3.3846   281
 3.3971   254
 3.4096   181
 3.4221   127
 3.4346    81
 3.4471    36
 3.4596    34
 3.4721    26
 3.4846    20
 3.4971    28
 3.5096    39
 3.5221    43
 3.5346    55
 3.5471    75
 3.5597    91
 3.5722   121
 3.5847   184
 3.5972   223
 3.6097   293
 3.6222   365
 3.6347   451
 3.6472   557
 3.6597   673
 3.6722   750
 3.6847   847
 3.6972   907
 3.7097   943
 3.7223   847
 3.7348   753
 3.7473   614
 3.7598   518
 3.7723   371
 3.7848   264
 3.7973   205
 3.8098   125
 3.8223    75
 3.8348    47
 3.8473    35
 3.8598    32
 3.8723    11
 3.8848    23
 3.8974    19
 3.9099    23
 3.9224    30
 3.9349    42
 3.9474    73
 3.9599    77
 3.9724   100
 3.9849   101
 3.9974   125
 4.0099   154
 4.0224   140
 4.0349   137
 4.0474   120
 4.0599   114
 4.0725    96
  4.085    87
 4.0975    65
   4.11    54
 4.1225    36
  4.135    31
 4.1475    21
   4.16    17
 4.1725    11
  4.185     8
 4.1975     9
   4.21    11
 4.2225     9
  4.235    11
 4.2476     9
 4.2601    12
 4.2726    13
 4.2851     6
 4.2976     9
 4.3101     9
 4.3226    14
 4.3351    12
 4.3476     9
 4.3601    17
 4.3726    24
 4.3851    12
 4.3976    23
 4.4102    18
 4.4227    45
 4.4352    54
 4.4477    66
 4.4602    73
 4.4727    91
 4.4852    91
 4.4977   107
 4.5102   109
 4.5227   114
 4.5352   114
 4.5477    80
 4.5602    71
 4.5727    69
 4.5853    65
 4.5978    40
 4.6103    34
 4.6228    22
 4.6353    17
 4.6478    15
 4.6603    15
 4.6728    17
 4.6853    10
 4.6978     7
 4.7103    17
 4.7228    12
 4.7353    18
 4.7478    13
 4.7604    28
 4.7729    13
 4.7854    19
 4.7979    22
 4.8104    22
 4.8229    29
 4.8354    27
 4.8479    27
 4.8604    29
 4.8729    20
 4.8854    21
 4.8979    26
 4.9104    27
 4.9229    22
 4.9355    22
  4.948    33
 4.9605    31
  4.973    26
 4.9855    28
  4.998    28
 5.0105    17
  5.023    20
 5.0355    11
  5.048    14
 5.0605    15
  5.073    15
 5.0855    14
 5.0981    24
 5.1106    15
 5.1231    14
 5.1356    18
 5.1481    18
 5.1606    13
 5.1731    19
 5.1856    10
 5.1981    13
 5.2106    13
 5.2231    12
 5.2356    15
 5.2481    14
 5.2606    14
 5.2732    18
 5.2857    15
 5.2982    10
 5.3107    16
 5.3232    16
 5.3357    15
 5.3482    14
 5.3607    16
 5.3732    11
 5.3857    17
 5.3982    13
 5.4107     9
 5.4232    18
 5.4357    11
 5.4483    21
 5.4608    10
 5.4733    16
 5.4858    17
 5.4983    16
 5.5108    22
 5.5233    14
 5.5358    14
 5.5483    15
 5.5608    25
 5.5733    24
 5.5858    12
 5.5983    11
 5.6108    20
 5.6234    13
 5.6359    15
 5.6484    18
 5.6609    13
 5.6734    22
 5.6859    18
 5.6984    23
 5.7109     7
 5.7234    18
 5.7359    18
 5.7484    28
 5.7609    17
 5.7734    16
  5.786    14
 5.7985    28
  5.811    19
 5.8235    25
  5.836    31
 5.8485    15
  5.861    39
 5.8735    32
  5.886    28
 5.8985    31
  5.911    31
 5.9235    30
  5.936    28
 5.9485    19
 5.9611    25
 5.9736    20
 5.9861    22
 5.9986    14
 6.0111    18
 6.0236    15
 6.0361    13
 6.0486    14
 6.0611    21
 6.0736    14
 6.0861    18
 6.0986    20
 6.1111    21
 6.1236    16
 6.1362    25
 6.1487    17
 6.1612    11
 6.1737    21
 6.1862    16
 6.1987    16
 6.2112    15
 6.2237    16
 6.2362    33
 6.2487    40
 6.2612    32
 6.2737    47
 6.2862    46
 6.2988    53
 6.3113    78
 6.3238    85
 6.3363    94
 6.3488   140
 6.3613   152
 6.3738   166
 6.3863   183
 6.3988   174
 6.4113   174
 6.4238   188
 6.4363   182
 6.4488   144
 6.4613   120
 6.4739   109
 6.4864    87
 6.4989    80
 6.5114    55
 6.5239    47
 6.5364    49
 6.5489    44
 6.5614    31
 6.5739    37
 6.5864    21
 6.5989    27
 6.6114    19
 6.6239    23
 6.6364    24
  6.649    26
 6.6615    25
  6.674    21
 6.6865    24
  6.699    21
 6.7115    32
  6.724    26
 6.7365    35
  6.749    23
 6.7615    26
  6.774    25
 6.7865    20
  6.799    27
 6.8115    19
 6.8241    25
 6.8366    26
 6.8491    27
 6.8616    22
 6.8741    28
 6.8866    35
 6.8991    35
 6.9116    24
 6.9241    32
 6.9366    38
 6.9491    34
 6.9616    36
 6.9741    45
 6.9867    45
 6.9992    49
 7.0117    44
 7.0242    51
 7.0367    44
 7.0492    67
 7.0617    45
 7.0742    40
 7.0867    65
 7.0992    51
 7.1117    53
 7.1242    48
 7.1367    32
 7.1492    47
 7.1618    31
 7.1743    46
 7.1868    37
 7.1993    34
 7.2118    36
 7.2243    40
 7.2368    39
 7.2493    38
 7.2618    41
 7.2743    40
 7.2868    34
 7.2993    49
 7.3118    35
 7.3243    53
 7.3369    51
 7.3494    53
 7.3619    66
 7.3744    68
 7.3869    65
 7.3994    50
 7.4119    50
 7.4244    47
 7.4369    62
 7.4494    58
 7.4619    58
 7.4744    65
 7.4869    62
 7.4994    50
  7.512    55
 7.5245    50
  7.537    45
 7.5495    56
  7.562    37
 7.5745    33
  7.587    46
 7.5995    38
  7.612    48
 7.6245    43
  7.637    30
 7.6495    45
  7.662    43
 7.6746    32
 7.6871    39
 7.6996    41
 7.7121    31
 7.7246    44
 7.7371    38
 7.7496    47
 7.7621    50
 7.7746    37
 7.7871    45
 7.7996    52
 7.8121    47
 7.8246    48
 7.8371    52
 7.8497    49
 7.8622    49
 7.8747    77
 7.8872    75
 7.8997    78
 7.9122    80
 7.9247    84
 7.9372    79
 7.9497    84
 7.9622   129
 7.9747   128
 7.9872   174
 7.9997   167
 8.0122   187
 8.0248   186
 8.0373   201
 8.0498   213
 8.0623   207
 8.0748   230
 8.0873   226
 8.0998   217
 8.1123   205
 8.1248   208
 8.1373   212
 8.1498   219
 8.1623   204
 8.1748   210
 8.1873   216
 8.1999   198
 8.2124   242
 8.2249   240
 8.2374   241
 8.2499   276
 8.2624   257
 8.2749   336
 8.2874   349
 8.2999   409
 8.3124   453
 8.3249   539
 8.3374   567
 8.3499   601
 8.3625   641
  8.375   650
 8.3875   685
    8.4   697
 8.4125   634
  8.425   596
 8.4375   581
   8.45   516
 8.4625   414
  8.475   360
 8.4875   265
    8.5   255
 8.5125   195
  8.525   161
 8.5376   140
 8.5501   122
 8.5626    90
 8.5751   104
 8.5876    79
 8.6001    63
 8.6126    73
 8.6251    75
 8.6376    73
 8.6501    73
 8.6626    67
 8.6751    79
 8.6876    78
 8.7001    75
 8.7127    66
 8.7252    60
 8.7377    59
 8.7502    70
 8.7627    54
 8.7752    77
 8.7877    63
 8.8002    72
 8.8127    74
 8.8252    71
 8.8377    73
 8.8502    67
 8.8627    62
 8.8752    76
 8.8878    75
 8.9003    65
 8.9128    83
 8.9253    84
 8.9378    77
 8.9503    74
 8.9628    76
 8.9753    70
 8.9878    87
 9.0003    68
 9.0128    99
 9.0253    94
 9.0378   103
 9.0504   136
 9.0629   123
 9.0754   135
 9.0879   158
 9.1004   187
 9.1129   190
 9.1254   230
 9.1379   259
 9.1504   284
 9.1629   251
 9.1754   299
 9.1879   288
 9.2004   296
 9.2129   298
 9.2255   257
  9.238   285
 9.2505   279
  9.263   252
 9.2755   242
  9.288   239
 9.3005   253
  9.313   210
 9.3255   213
  9.338   202
 9.3505   198
  9.363   216
 9.3755   200
  9.388   191
 9.4006   191
 9.4131   205
 9.4256   235
 9.4381   215
 9.4506   224
 9.4631   233
 9.4756   216
 9.4881   254
 9.5006   246
 9.5131   258
 9.5256   265
 9.5381   317
 9.5506   280
 9.5631   332
 9.5757   362
 9.5882   365
 9.6007   409
 9.6132   445
 9.6257   442
 9.6382   470
 9.6507   532
 9.6632   502
 9.6757   512
 9.6882   488
 9.7007   461
 9.7132   452
 9.7257   388
 9.7383   347
 9.7508   345
 9.7633   280
 9.7758   254
 9.7883   267
 9.8008   226
 9.8133   236
 9.8258   220
 9.8383   213
 9.8508   191
 9.8633   215
 9.8758   192
 9.8883   234
 9.9008   227
 9.9134   212
 9.9259   246
 9.9384   218
 9.9509   231
 9.9634   242
 9.9759   229
 9.9884   213
10.0009   200
10.0134   200
10.0259   190
10.0384   136
10.0509   119
10.0634   117
10.0759   121
10.0885    86
 10.101    88
10.1135    74
 10.126    80
10.1385    72
 10.151    62
10.1635    66
 10.176    55
10.1885    62
 10.201    86
10.2135    73
 10.226    62
10.2385    85
 10.251    79
10.2636    82
10.2761    93
10.2886   133
10.3011   128
10.3136   188
10.3261   247
10.3386   298
10.3511   399
10.3636   465
10.3761   654
10.3886   744
10.4011   957
10.4136  1149
10.4262  1426
10.4387  1713
10.4512  2057
10.4637  2358
10.4762  2612
10.4887  2993
10.5012  3276
10.5137  3456
10.5262  3612
10.5387  3615
10.5512  3532
10.5637  3425
10.5762  3372
10.5887  3165
10.6013  2716
10.6138  2518
10.6263  2257
10.6388  1859
10.6513  1507
10.6638  1109
10.6763   933
10.6888   701
10.7013   539
10.7138   393
10.7263   311
10.7388   216
10.7513   179
10.7638   136
10.7764   101
10.7889   109
10.8014    75
10.8139    74
10.8264    61
10.8389    59
10.8514    66
10.8639    55
10.8764    56
10.8889    57
10.9014    59
10.9139    50
10.9264    53
10.9389    43
10.9515    50
 10.964    64
10.9765    42
 10.989    43
11.0015    33
 11.014    43
11.0265    34
 11.039    46
11.0515    34
 11.064    36
11.0765    48
 11.089    52
11.1015    48
11.1141    47
11.1266    41
11.1391    51
11.1516    40
11.1641    52
11.1766    62
11.1891    60
11.2016    73
11.2141    94
11.2266    96
11.2391    69
11.2516    91
11.2641   119
11.2766    90
11.2892    92
11.3017   109
11.3142    99
11.3267   134
11.3392   102
11.3517   118
11.3642   100
11.3767    90
11.3892   109
11.4017    98
11.4142    81
11.4267    66
11.4392    62
11.4517    38
11.4643    51
11.4768    52
11.4893    36
11.5018    37
11.5143    34
11.5268    36
11.5393    31
11.5518    38
11.5643    31
11.5768    41
11.5893    45
11.6018    32
11.6143    34
11.6268    45
11.6394    38
11.6519    37
11.6644    43
11.6769    42
11.6894    41
11.7019    22
11.7144    40
11.7269    38
11.7394    29
11.7519    30
11.7644    38
11.7769    33
11.7894    32
 11.802    36
11.8145    26
 11.827    24
11.8395    37
 11.852    34
11.8645    31
 11.877    46
11.8895    22
 11.902    15
11.9145    29
 11.927    31
11.9395    46
 11.952    37
11.9645    45
11.9771    42
11.9896    61
12.0021    40
12.0146    38
12.0271    46
12.0396    62
12.0521    68
12.0646    62
12.0771    85
12.0896    84
12.1021    88
12.1146   104
12.1271    99
12.1396   115
12.1522   111
12.1647   126
12.1772   118
12.1897   135
12.2022   182
12.2147   154
12.2272   172
12.2397   198
12.2522   195
12.2647   192
12.2772   201
12.2897   197
12.3022   179
12.3147   196
12.3273   190
12.3398   180
12.3523   184
12.3648   189
12.3773   216
12.3898   210
12.4023   236
12.4148   264
12.4273   339
12.4398   423
12.4523   592
12.4648   673
12.4773   818
12.4899   971
12.5024  1225
12.5149  1398
12.5274  1603
12.5399  1868
12.5524  2027
12.5649  2300
12.5774  2297
12.5899  2412
12.6024  2493
12.6149  2515
12.6274  2382
12.6399  2365
12.6524  2134
 12.665  2058
12.6775  1833
  12.69  1623
12.7025  1367
 12.715  1181
12.7275  1036
  12.74   911
12.7525   677
 12.765   614
12.7775   492
  12.79   433
12.8025   383
 12.815   300
12.8275   258
12.8401   244
12.8526   202
12.8651   177
12.8776   169
12.8901   166
12.9026   136
12.9151   139
12.9276   119
12.9401   113
12.9526   125
12.9651   111
12.9776   129
12.9901   138
13.0026   108
13.0152    98
13.0277   106
13.0402   107
13.0527   108
13.0652    91
13.0777   104
13.0902    93
13.1027    58
13.1152    54
13.1277    60
13.1402    49
13.1527    50
13.1652    47
13.1778    45
13.1903    50
13.2028    35
13.2153    26
13.2278    22
13.2403    31
13.2528    29
13.2653    30
13.2778    26
13.2903    30
13.3028    28
13.3153    26
13.3278    30
13.3403    30
13.3529    20
13.3654    25
13.3779    25
13.3904    26
13.4029    16
13.4154    20
13.4279    30
13.4404    21
13.4529    17
13.4654    21
13.4779    16
13.4904    21
13.5029    15
13.5154    14
 13.528    18
13.5405    17
 13.553    13
13.5655    18
 13.578     8
13.5905    19
 13.603     6
13.6155    17
 13.628    15
13.6405    12
 13.653    23
13.6655    15
 13.678    14
13.6905    12
13.7031    13
13.7156    10
13.7281    22
13.7406    14
13.7531    15
13.7656    13
13.7781    11
13.7906     9
13.8031     7
13.8156    13
13.8281    19
13.8406    11
13.8531    14
13.8657    17
13.8782    11
13.8907    19
13.9032    10
13.9157     9
13.9282    17
13.9407    19
13.9532    16
13.9657    16
13.9782    15
13.9907    19
14.0032    11
14.0157    19
14.0282    20
14.0408    19
14.0533    24
14.0658    19
14.0783    16
14.0908    24
14.1033    26
14.1158    28
14.1283    20
14.1408    30
14.1533    31
14.1658    20
14.1783    26
14.1908    19
14.2033    19
14.2159    27
14.2284    38
14.2409    24
14.2534    28
14.2659    31
14.2784    26
14.2909    27
14.3034    27
14.3159    26
14.3284    19
14.3409    34
14.3534    22
14.3659    39
14.3784    21
 14.391    24
14.4035    19
 14.416    28
14.4285    22
 14.441    24
14.4535    20
 14.466    37
14.4785    22
 14.491    20
14.5035    26
 14.516    31
14.5285    39
 14.541    46
14.5536    49
14.5661    51
14.5786    72
14.5911    76
14.6036    94
14.6161   117
14.6286   112
14.6411   163
14.6536   182
14.6661   201
14.6786   210
14.6911   242
14.7036   265
14.7161   259
14.7287   280
14.7412   292
14.7537   315
14.7662   312
14.7787   235
14.7912   246
14.8037   246
14.8162   209
14.8287   160
14.8412   151
14.8537   160
14.8662   121
14.8787    95
14.8912    87
14.9038    93
14.9163    62
14.9288    66
14.9413    44
14.9538    53
14.9663    50
14.9788    44
14.9913    44
15.0038    52
15.0163    52
15.0288    52
15.0413    69
15.0538    67
15.0663    84
15.0789    78
15.0914    84
15.1039    87
15.1164    88
15.1289    91
15.1414   101
15.1539    79
15.1664    86
15.1789   104
15.1914    80
15.2039    75
15.2164    84
15.2289    82
15.2415    67
 15.254    46
15.2665    62
 15.279    42
15.2915    38
 15.304    50
15.3165    34
 15.329    26
15.3415    25
 15.354    24
15.3665    23
 15.379    21
15.3915    17
 15.404    23
15.4166    20
15.4291    14
15.4416    11
15.4541    19
15.4666    15
15.4791    15
15.4916    24
15.5041    21
15.5166    18
15.5291    16
15.5416    17
15.5541    15
15.5666    15
15.5791    14
15.5917    22
15.6042    22
15.6167    20
15.6292    32
15.6417    23
15.6542    21
15.6667    29
15.6792    32
15.6917    33
15.7042    43
15.7167    36
15.7292    32
15.7417    36
15.7542    34
15.7668    31
15.7793    30
15.7918    22
15.8043    32
15.8168    34
15.8293    32
15.8418    29
15.8543    25
15.8668    23
15.8793    20
15.8918    15
15.9043    16
15.9168    14
15.9294    17
15.9419    12
15.9544    12
15.9669     9
15.9794    19
15.9919    13
16.0044    12
16.0169    12
16.0294    14
16.0419    18
16.0544    14
16.0669    12
16.0794    12
16.0919     9
16.1045    12
 16.117    13
16.1295    11
 16.142    14
16.1545    13
 16.167    10
16.1795     6
 16.192     7
16.2045     8
 16.217    11
16.2295    11
 16.242    11
16.2545     3
 16.267    14
16.2796    12
16.2921     9
16.3046     8
16.3171     6
16.3296    11
16.3421    15
16.3546    11
16.3671    15
16.3796    10
16.3921    10
16.4046    13
16.4171    13
16.4296    14
16.4421     5
16.4547     5
16.4672    17
16.4797    12
16.4922    13
16.5047    11
16.5172    12
16.5297    11
16.5422     9
16.5547     8
16.5672     8
16.5797    11
16.5922    13
16.6047     7
16.6173    12
16.6298    12
16.6423    12
16.6548    12
16.6673    13
16.6798    16
16.6923    11
16.7048    11
16.7173    12
16.7298    10
16.7423     9
16.7548     4
16.7673     7
16.7798    13
16.7924     8
16.8049    16
16.8174    14
16.8299    13
16.8424    11
16.8549    17
16.8674    10
16.8799     9
16.8924    13
16.9049     9
16.9174    13
16.9299     9
16.9424    13
16.9549    12
16.9675    17
  16.98     9
16.9925     7
 17.005    13
17.0175    17
  17.03     8
17.0425     7
 17.055     9
17.0675    12
  17.08     6
17.0925    14
 17.105    14
17.1175    12
  17.13    15
17.1426    15
17.1551     7
17.1676     5
17.1801    10
17.1926     6
17.2051    11
17.2176    11
17.2301    11
17.2426     8
17.2551    12
17.2676     9
17.2801    12
17.2926     5
17.3052    15
17.3177    12
17.3302    12
17.3427    14
17.3552    10
17.3677    11
17.3802    15
17.3927     5
17.4052    16
17.4177     9
17.4302    11
17.4427    11
17.4552    11
17.4677    12
17.4803    15
17.4928    17
17.5053    11
17.5178    12
17.5303    12
17.5428    16
17.5553    10
17.5678    10
17.5803    13
17.5928    13
17.6053    17
17.6178     9
17.6303    11
17.6428     7
17.6554     9
17.6679    11
17.6804    14
17.6929    12
17.7054    14
17.7179    11
17.7304     5
17.7429     7
17.7554    14
17.7679    17
17.7804    15
17.7929     7
17.8054     4
17.8179     8
17.8305     8
 17.843     5
17.8555    10
 17.868     8
17.8805     4
 17.893    11
17.9055     9
 17.918     9
17.9305    13
 17.943     5
17.9555     5
 17.968    12
17.9805     5
17.9931    10
18.0056    13
18.0181     5
18.0306    15
18.0431     6
18.0556     7
18.0681     7
18.0806    12
18.0931     7
18.1056     7
18.1181     6
18.1306     8
18.1431    12
18.1556     9
18.1682     7
18.1807     6
18.1932    11
18.2057    17
18.2182     8
18.2307    10
18.2432    10
18.2557     8
18.2682     6
18.2807    10
18.2932     9
18.3057     6
18.3182     6
18.3307     9
18.3433     8
18.3558     5
18.3683     5
18.3808    16
18.3933    11
18.4058    14
18.4183     6
18.4308    18
18.4433     7
18.4558    11
18.4683    13
18.4808     9
18.4933     5
18.5058    10
18.5184     5
18.5309     5
18.5434    11
18.5559     6
18.5684     3
18.5809    10
18.5934     8
18.6059     9
18.6184     6
18.6309     9
18.6434     4
18.6559     9
18.6684    11
 18.681    13
18.6935     7
 18.706     9
18.7185     4
 18.731    12
18.7435     5
 18.756     6
18.7685    10
 18.781     7
18.7935    10
 18.806     8
18.8185    10
 18.831    16
18.8435     8
18.8561     9
18.8686    10
18.8811    15
18.8936     8
18.9061    12
18.9186     4
18.9311     8
18.9436    11
18.9561    11
18.9686     7
18.9811     5
18.9936     3
19.0061     7
19.0186     4
19.0312     8
19.0437     7
19.0562     7
19.0687    10
19.0812     7
19.0937     5
19.1062     7
19.1187     8
19.1312     9
19.1437     5
19.1562     4
19.1687     6
19.1812     6
19.1937    10
19.2063     5
19.2188     2
19.2313     6
19.2438     8
19.2563     6
19.2688     7
19.2813     4
19.2938     8
19.3063    11
19.3188     9
19.3313     6
19.3438     7
19.3563    12
19.3689     8
19.3814     9
19.3939     4
19.4064    13
19.4189     8
19.4314     9
19.4439    12
19.4564     2
19.4689    10
19.4814    10
19.4939     7
19.5064    11
19.5189     4
19.5314     5
 19.544    10
19.5565    11
 19.569     8
19.5815     9
 19.594     8
19.6065    11
 19.619     5
19.6315     7
 19.644     5
19.6565     8
 19.669     8
19.6815    10
 19.694     6
19.7065     7
19.7191     9
19.7316     7
19.7441     7
19.7566     8
19.7691     5
19.7816     8
19.7941     4
19.8066     3
19.8191     6
19.8316     7
19.8441     9
19.8566     7
19.8691     7
19.8816     7
19.8942     6
19.9067     4
19.9192     6
19.9317     4
19.9442     8
19.9567     8
19.9692     2
19.9817    12
19.9942     8
20.0067     7
20.0192     4
20.0317     8
20.0442     4
20.0568     7
20.0693    10
20.0818     7
20.0943     4
20.1068    13
20.1193    10
20.1318    12
20.1443     6
20.1568    11
20.1693     9
20.1818     6
20.1943     6
20.2068    12
20.2193     7
20.2319     9
20.2444     2
20.2569     8
20.2694     3
20.2819     3
20.2944     5
20.3069     7
20.3194     5
20.3319     6
20.3444     6
20.3569     5
20.3694     5
20.3819     6
20.3944     6
 20.407     4
20.4195    13
 20.432     9
20.4445     6
 20.457     5
20.4695     8
 20.482     7
20.4945     5
 20.507     4
20.5195    10
 20.532     8
20.5445     8
 20.557    11
20.5695     5
20.5821     4
20.5946     8
20.6071     1
20.6196     6
20.6321     6
20.6446     5
20.6571     8
20.6696     6
20.6821     6
20.6946     8
20.7071     8
20.7196     3
20.7321     6
20.7447     3
20.7572     7
20.7697     2
20.7822     2
20.7947    10
20.8072     7
20.8197     3
20.8322     7
20.8447     3
20.8572     5
20.8697     7
20.8822     7
20.8947     4
20.9072     5
20.9198    10
20.9323     5
20.9448     1
20.9573     6
20.9698     6
20.9823     8
20.9948     8
21.0073     7
21.0198     6
21.0323     8
21.0448     8
21.0573     6
21.0698     5
21.0823     7
21.0949     9
21.1074     3
21.1199     9
21.1324    10
21.1449     8
21.1574     6
21.1699     7
21.1824     5
21.1949     6
21.2074     9
21.2199     5
21.2324     4
21.2449     8
21.2574     7
  21.27     5
21.2825     8
 21.295     6
21.3075     6
  21.32     4
21.3325     9
 21.345     8
21.3575     3
  21.37     6
21.3825     3
 21.395    12
21.4075     5
  21.42     1
21.4326     3
21.4451     3
21.4576    10
21.4701     4
21.4826     7
21.4951     5
21.5076     4
21.5201     5
21.5326     5
21.5451     8
21.5576     9
21.5701     9
21.5826     3
21.5951     6
21.6077     7
21.6202     7
21.6327     3
21.6452     9
21.6577     4
21.6702     6
21.6827     3
21.6952     7
21.7077     5
21.7202     7
21.7327    11
21.7452     7
21.7577     5
21.7702     9
21.7828    10
21.7953     7
21.8078     8
21.8203     5
21.8328     5
21.8453     6
21.8578    14
21.8703     5
21.8828     5
21.8953     6
21.9078     3
21.9203     5
21.9328     8
21.9453     4
21.9579    13
21.9704     6
21.9829     6
21.9954     6
22.0079     4
22.0204     3
22.0329     5
22.0454     8
22.0579     7
22.0704     6
22.0829     5
22.0954    10
22.1079     9
22.1205     7
 22.133    11
22.1455     4
 22.158    12
22.1705     5
 22.183    11
22.1955     5
 22.208     9
22.2205     6
 22.233     6
22.2455     7
 22.258     5
22.2705     4
 22.283     5
22.2956     2
22.3081     4
22.3206     8
22.3331     4
22.3456     3
22.3581     3
22.3706     5
22.3831     5
22.3956     4
22.4081     4
22.4206     5
22.4331     3
22.4456     7
22.4581     7
22.4707     4
22.4832     3
22.4957     6
22.5082     8
22.5207     5
22.5332     6
22.5457     5
22.5582     6
22.5707     4
22.5832     1
22.5957     3
22.6082     8
22.6207     3
22.6332     7
22.6458     5
22.6583     6
22.6708     1
22.6833     6
22.6958     2
22.7083     1
22.7208     6
22.7333     4
22.7458     5
22.7583     2
22.7708     9
22.7833     3
22.7958     7
22.8084     5
22.8209     9
22.8334     7
22.8459     6
22.8584     4
22.8709     2
22.8834     5
22.8959     5
22.9084     6
22.9209     6
22.9334     5
22.9459     4
22.9584     4
22.9709     5
22.9835     4
 22.996     9
23.0085     9
 23.021     8
23.0335     8
 23.046     2
23.0585     3
 23.071     8
23.0835     9
 23.096     1
23.1085     2
 23.121     9
23.1335     8
 23.146     3
23.1586     3
23.1711    10
23.1836     4
23.1961     3
23.2086     5
23.2211     7
23.2336     6
23.2461     6
23.2586     3
23.2711     5
23.2836     7
23.2961     2
23.3086     6
23.3211     5
23.3337     3
23.3462     8
23.3587     7
23.3712     9
23.3837     6
23.3962     9
23.4087     3
23.4212     6
23.4337     5
23.4462     5
23.4587     7
23.4712     5
23.4837     6
23.4963     2
23.5088     4
23.5213     3
23.5338     4
23.5463     3
23.5588     7
23.5713     7
23.5838     5
23.5963     6
23.6088     6
23.6213     3
23.6338     3
23.6463     4
23.6588     1
23.6714     5
23.6839     4
23.6964     2
23.7089     3
23.7214     8
23.7339     1
23.7464     7
23.7589     4
23.7714     6
23.7839     4
23.7964     3
23.8089     3
23.8214     5
23.8339     1
23.8465     2
 23.859     7
23.8715     2
 23.884     4
23.8965     4
 23.909     2
23.9215     5
 23.934     3
23.9465     5
 23.959     8
23.9715     7
 23.984     2
23.9965     3
 24.009     9
24.0216     3
24.0341     4
24.0466     4
24.0591     2
24.0716     6
24.0841     4
24.0966     2
24.1091     7
24.1216     4
24.1341     4
24.1466     2
24.1591    10
24.1716     4
24.1842     5
24.1967     5
24.2092     4
24.2217     5
24.2342     3
24.2467     6
24.2592     5
24.2717     6
24.2842     3
24.2967     2
24.3092     3
24.3217     5
24.3342     5
24.3467     4
24.3593     3
24.3718     2
24.3843     2
24.3968     3
24.4093     3
24.4218     4
24.4343     6
24.4468     5
24.4593     5
24.4718     3
24.4843     7
24.4968     1
24.5093     3
24.5218     3
24.5344     6
24.5469     1
24.5594     2
24.5719     5
24.5844     5
24.5969     8
24.6094     5
24.6219     3
24.6344     3
24.6469     1
24.6594     1
24.6719     3
24.6844     3
24.6969     5
24.7095     2
 24.722     6
24.7345     4
 24.747     4
24.7595     4
 24.772     3
24.7845     5
 24.797     3
24.8095     8
 24.822     3
24.8345     7
 24.847     8
24.8595     5
24.8721     6
24.8846     6
24.8971     2
24.9096     4
24.9221     2
24.9346     1
24.9471     6
24.9596     9
24.9721     6
24.9846     8
24.9971     8
25.0096     6
25.0221     9
25.0346     4
25.0472     5
25.0597     5
25.0722     8
25.0847     7
25.0972     3
25.1097     3
25.1222     3
25.1347     2
25.1472     5
25.1597     5
25.1722     4
25.1847     6
25.1972     3
25.2097     9
25.2223     2
25.2348     6
25.2473     3
25.2598     4
25.2723     5
25.2848     5
25.2973     6
25.3098     3
25.3223     3
25.3348     2
25.3473     2
25.3598     1
25.3723     7
25.3848     2
25.3974     5
25.4099     2
25.4224     2
25.4349     4
25.4474     1
25.4599     4
25.4724     0
25.4849     2
25.4974     6
25.5099     2
25.5224     3
25.5349     0
25.5474     3
  25.56     4
25.5725     7
 25.585     2
25.5975     5
  25.61     3
25.6225     5
 25.635     2
25.6475     4
  25.66     4
25.6725     7
 25.685     2
25.6975     1
  25.71     3
25.7225     5
25.7351     3
25.7476     5
25.7601     5
25.7726     6
25.7851     4
25.7976     4
25.8101     2
25.8226     5
25.8351     2
25.8476     3
25.8601     3
25.8726     4
25.8851     1
25.8976     2
25.9102     1
25.9227     3
25.9352     0
25.9477     5
25.9602     3
25.9727     8
25.9852     4
25.9977     3
26.0102     3
26.0227     3
26.0352     4
26.0477     2
26.0602    10
26.0727     5
26.0853     6
26.0978     2
26.1103     2
26.1228     2
26.1353     3
26.1478     3
26.1603     5
26.1728     2
26.1853     2
26.1978     3
26.2103     3
26.2228     3
26.2353     2
26.2479     5
26.2604     3
26.2729     1
26.2854     3
26.2979     3
26.3104     1
26.3229     4
26.3354     2
26.3479     1
26.3604     5
26.3729     5
26.3854     3
26.3979     2
26.4104     3
 26.423     1
26.4355     3
 26.448     2
26.4605     6
 26.473     4
26.4855     1
 26.498     0
26.5105     2
 26.523     1
26.5355     2
 26.548     2
26.5605     1
 26.573     1
26.5855     2
26.5981     5
26.6106     3
26.6231     0
26.6356     2
26.6481     1
26.6606     1
26.6731     4
26.6856     2
26.6981     4
26.7106     1
26.7231     0
26.7356     6
26.7481     2
26.7606     3
26.7732     4
26.7857     3
26.7982     5
26.8107     0
26.8232     2
26.8357     2
26.8482     3
26.8607     1
26.8732     2
26.8857     4
26.8982     4
26.9107     8
26.9232     2
26.9358     2
26.9483     2
26.9608     1
26.9733     1
26.9858     2
26.9983     2
27.0108     4
27.0233     2
27.0358     3
27.0483     5
27.0608     3
27.0733     6
27.0858     3
27.0983     3
27.1109     6
27.1234     1
27.1359     4
27.1484     7
27.1609     1
27.1734     2
27.1859     1
27.1984     5
27.2109     0
27.2234     3
27.2359     2
27.2484     3
27.2609     4
27.2734     1
 27.286     4
27.2985     3
 27.311     2
27.3235     1
 27.336     2
27.3485     2
 27.361     1
27.3735     2
 27.386     2
27.3985     3
 27.411     2
27.4235     2
 27.436     1
27.4485     1
27.4611     4
27.4736     5
27.4861     2
27.4986     2
27.5111     1
27.5236     2
27.5361     2
27.5486     2
27.5611     4
27.5736     1
27.5861     0
27.5986     2
27.6111     1
27.6237     1
27.6362     1
27.6487     1
27.6612     1
27.6737     4
27.6862     1
27.6987     3
27.7112     4
27.7237     1
27.7362     2
27.7487     2
27.7612     1
27.7737     2
27.7862     2
27.7988     4
27.8113     2
27.8238     2
27.8363     4
27.8488     3
27.8613     2
27.8738     2
27.8863     2
27.8988     3
27.9113     1
27.9238     3
27.9363     1
27.9488     2
27.9613     1
27.9739     3
27.9864     2
27.9989     2
28.0114     3
28.0239     1
28.0364     3
28.0489     3
28.0614     4
28.0739     5
28.0864     2
28.0989     1
28.1114     3
28.1239     1
28.1364     3
 28.149     4
28.1615     4
 28.174     2
28.1865     4
 28.199     0
28.2115     0
 28.224     1
28.2365     1
 28.249     1
28.2615     1
 28.274     1
28.2865     1
 28.299     6
28.3116     1
28.3241     2
28.3366     0
28.3491     2
28.3616     2
28.3741     2
28.3866     4
28.3991     0
28.4116     4
28.4241     5
28.4366     1
28.4491     1
28.4616     2
28.4741     2
28.4867     3
28.4992     1
28.5117     5
28.5242     1
28.5367     1
28.5492     4
28.5617     1
28.5742     7
28.5867     3
28.5992     0
28.6117     1
28.6242     1
28.6367     2
28.6492     4
28.6618     3
28.6743     2
28.6868     2
28.6993     1
28.7118     1
28.7243     5
28.7368     1
28.7493     3
28.7618     2
28.7743     8
28.7868     1
28.7993     1
28.8118     1
28.8243     1
28.8369     2
28.8494     3
28.8619     2
28.8744     2
28.8869     2
28.8994     2
28.9119     3
28.9244     1
28.9369     2
28.9494     3
28.9619     0
28.9744     1
28.9869     1
28.9995     2
 29.012     3
29.0245     2
 29.037     3
29.0495     6
 29.062     3
29.0745     2
 29.087     0
29.0995     1
 29.112     1
29.1245     2
 29.137     1
29.1495     1
 29.162     2
29.1746     5
29.1871     3
29.1996     2
29.2121     1
29.2246     2
29.2371     0
29.2496     2
29.2621     1
29.2746     4
29.2871     2
29.2996     3
29.3121     3
29.3246     2
29.3371     3
29.3497     2
29.3622     1
29.3747     1
29.3872     3
29.3997     3
29.4122     0
29.4247     2
29.4372     1
29.4497     2
29.4622     5
29.4747     2
29.4872     1
29.4997     2
29.5123     2
29.5248     0
29.5373     4
29.5498     1
29.5623     2
29.5748     0
29.5873     3
29.5998     1
29.6123     0
29.6248     2
29.6373     1
29.6498     2
29.6623     0
29.6748     2
29.6874     2
29.6999     1
29.7124     3
29.7249     2
29.7374     2
29.7499     1
29.7624     3
29.7749     0
29.7874     1
29.7999     4
29.8124     1
29.8249     1
29.8374     1
29.8499     3
29.8625     2
 29.875     2
29.8875     1
   29.9     0
29.9125     0
 29.925     2
29.9375     3
  29.95     2
29.9625     0
 29.975     1
29.9875     3
     30     0
30.0125     0
 30.025     1
30.0376     2
30.0501     4
30.0626     0
30.0751     1
30.0876     4
30.1001     1
30.1126     1
30.1251     1
30.1376     0
30.1501     1
30.1626     2
30.1751     2
30.1876     2
30.2002     1
30.2127     3
30.2252     4
30.2377     2
30.2502     0
30.2627     1
30.2752     4
30.2877     1
30.3002     2
30.3127     1
30.3252     1
30.3377     4
30.3502     0
30.3627     1
30.3753     1
30.3878     1
30.4003     1
30.4128     1
30.4253     3
30.4378     3
30.4503     6
30.4628     2
30.4753     1
30.4878     2
30.5003     4
30.5128     1
30.5253     2
30.5378     1
30.5504     2
30.5629     5
30.5754     2
30.5879     2
30.6004     0
30.6129     2
30.6254     4
30.6379     1
30.6504     2
30.6629     1
30.6754     1
30.6879     2
30.7004     2
30.7129     0
30.7255     0
 30.738     3
30.7505     2
 30.763     3
30.7755     1
 30.788     1
30.8005     0
 30.813     1
30.8255     1
 30.838     1
30.8505     1
 30.863     1
30.8755     1
30.8881     1
30.9006     1
30.9131     3
30.9256     0
30.9381     1
30.9506     1
30.9631     0
30.9756     2
30.9881     1
31.0006     1
31.0131     3
31.0256     4
31.0381     0
31.0506     5
31.0632     0
31.0757     2
31.0882     2
31.1007     0
31.1132     0
31.1257     2
31.1382     0
31.1507     3
31.1632     0
31.1757     2
31.1882     2
31.2007     2
31.2132     2
31.2257     1
31.2383     0
31.2508     2
31.2633     1
31.2758     1
31.2883     2
31.3008     1
31.3133     1
31.3258     3
31.3383     1
31.3508     2
31.3633     3
31.3758     2
31.3883     4
31.4008     2
31.4134     1
31.4259     1
31.4384     1
31.4509     2
31.4634     0
31.4759     1
31.4884     2
31.5009     1
31.5134     0
31.5259     1
31.5384     1
31.5509     1
31.5634     1
 31.576     3
31.5885     3
 31.601     1
31.6135     1
 31.626     0
31.6385     2
 31.651     2
31.6635     0
 31.676     3
31.6885     1
 31.701     0
31.7135     2
 31.726     1
31.7385     1
31.7511     2
31.7636     0
31.7761     1
31.7886     2
31.8011     2
31.8136     2
31.8261     1
31.8386     3
31.8511     2
31.8636     3
31.8761     1
31.8886     0
31.9011     3
31.9136     1
31.9262     2
31.9387     0
31.9512     1
31.9637     1
31.9762     0
31.9887     0
32.0012     1
32.0137     1
32.0262     2
32.0387     1
32.0512     1
32.0637     0
32.0762     1
32.0887     1
32.1013     1
32.1138     2
32.1263     1
32.1388     2
32.1513     1
32.1638     3
32.1763     3
32.1888     2
32.2013     1
32.2138     1
32.2263     0
32.2388     2
32.2513     0
32.2639     2
32.2764     4
32.2889     1
32.3014     0
32.3139     0
32.3264     1
32.3389     4
32.3514     1
32.3639     2
32.3764     0
32.3889     0
32.4014     1
32.4139     0
32.4264     0
 32.439     0
32.4515     2
 32.464     2
32.4765     0
 32.489     0
32.5015     0
 32.514     1
32.5265     1
 32.539     0
32.5515     1
 32.564     0
32.5765     0
 32.589     1
32.6015     3
32.6141     1
32.6266     0
32.6391     0
32.6516     1
32.6641     2
32.6766     1
32.6891     1
32.7016     1
32.7141     3
32.7266     0
32.7391     0
32.7516     0
32.7641     0
32.7766     0
32.7892     3
32.8017     2
32.8142     2
32.8267     1
32.8392     0
32.8517     1
32.8642     0
32.8767     1
32.8892     0
32.9017     4
32.9142     0
32.9267     2
32.9392     2
32.9518     0
32.9643     3
32.9768     3
32.9893     2
33.0018     0
33.0143     0
33.0268     1
33.0393     1
33.0518     0
33.0643     1
33.0768     0
33.0893     0
33.1018     0
33.1143     1
33.1269     1
33.1394     0
33.1519     1
33.1644     0
33.1769     0
33.1894     1
33.2019     0
33.2144     1
33.2269     0
33.2394     0
33.2519     2
33.2644     2
33.2769     0
33.2894     0
 33.302     2
33.3145     0
 33.327     0
33.3395     1
 33.352     2
33.3645     0
 33.377     0
33.3895     1
 33.402     2
33.4145     0
 33.427     1
33.4395     0
 33.452     1
33.4645     0
33.4771     1
33.4896     1
33.5021     0
33.5146     0
33.5271     1
33.5396     1
33.5521     0
33.5646     0
33.5771     0
33.5896     0
33.6021     2
33.6146     0
33.6271     1
33.6397     0
33.6522     1
33.6647     0
33.6772     0
33.6897     1
33.7022     0
33.7147     1
33.7272     2
33.7397     1
33.7522     0
33.7647     0
33.7772     1
33.7897     0
33.8022     0
33.8148     0
33.8273     1
33.8398     2
33.8523     0
33.8648     2
33.8773     0
33.8898     0
33.9023     1
33.9148     0
33.9273     1
33.9398     1
33.9523     0
33.9648     0
33.9773     2
33.9899     2
34.0024     0
34.0149     1
34.0274     2
34.0399     1
34.0524     1
34.0649     3
34.0774     0
34.0899     2
34.1024     0
34.1149     0
34.1274     1
34.1399     0
34.1524     0
 34.165     1
34.1775     0
  34.19     0
34.2025     1
 34.215     0
34.2275     1
  34.24     2
34.2525     1
 34.265     2
34.2775     2
  34.29     1
34.3025     0
 34.315     0
34.3276     1
34.3401     0
34.3526     1
34.3651     2
34.3776     1
34.3901     0
34.4026     0
34.4151     0
34.4276     0
34.4401     0
34.4526     1
34.4651     0
34.4776     1
34.4901     1
34.5027     1
34.5152     0
34.5277     0
34.5402     0
34.5527     1
34.5652     0
34.5777     2
34.5902     3
34.6027     0
34.6152     1
34.6277     0
34.6402     0
34.6527     0
34.6652     1
34.6778     1
34.6903     2
34.7028     1
34.7153     2
34.7278     1
34.7403     0
34.7528     1
34.7653     0
34.7778     0
34.7903     2
34.8028     0
34.8153     0
34.8278     2
34.8403     0
34.8529     1
34.8654     0
34.8779     0
34.8904     1
34.9029     0
34.9154     1
34.9279     2
34.9404     0
34.9529     0
34.9654     1
34.9779     1
34.9904     2
35.0029     0
35.0155     1
 35.028     1
35.0405     2
 35.053     0
35.0655     0
 35.078     1
35.0905     1
 35.103     1
35.1155     1
 35.128     0
35.1405     2
 35.153     0
35.1655     1
 35.178     3
35.1906     0
35.2031     0
35.2156     0
35.2281     0
35.2406     1
35.2531     2
35.2656     1
35.2781     2
35.2906     1
35.3031     0
35.3156     2
35.3281     0
35.3406     0
35.3531     0
35.3657     1
35.3782     0
35.3907     0
35.4032     2
35.4157     1
35.4282     1
35.4407     1
35.4532     0
35.4657     2
35.4782     0
35.4907     0
35.5032     0
35.5157     0
35.5282     1
35.5408     0
35.5533     0
35.5658     2
35.5783     0
35.5908     0
35.6033     2
35.6158     0
35.6283     1
35.6408     0
35.6533     1
35.6658     1
35.6783     0
35.6908     0
35.7034     0
35.7159     1
35.7284     1
35.7409     0
35.7534     2
35.7659     0
35.7784     2
35.7909     3
35.8034     0
35.8159     0
35.8284     0
35.8409     0
35.8534     0
35.8659     1
35.8785     0
 35.891     0
35.9035     0
 35.916     3
35.9285     1
 35.941     1
35.9535     0
 35.966     1
35.9785     0
 35.991     0
36.0035     0
 36.016     0
36.0285     0
 36.041     0
36.0536     1
36.0661     0
36.0786     0
36.0911     0
36.1036     1
36.1161     1
36.1286     1
36.1411     0
36.1536     0
36.1661     1
36.1786     0
36.1911     0
36.2036     2
36.2161     0
36.2287     1
36.2412     0
36.2537     0
36.2662     0
36.2787     0
36.2912     1
36.3037     1
36.3162     1
36.3287     1
36.3412     0
36.3537     2
36.3662     1
36.3787     0
36.3913     0
36.4038     1
36.4163     1
36.4288     1
36.4413     1
36.4538     1
36.4663     0
36.4788     2
36.4913     0
36.5038     1
36.5163     0
36.5288     1
36.5413     0
36.5538     1
36.5664     2
36.5789     2
36.5914     0
36.6039     0
36.6164     0
36.6289     0
36.6414     0
36.6539     0
36.6664     0
36.6789     0
36.6914     0
36.7039     0
36.7164     0
36.7289     0
36.7415     1
 36.754     0
36.7665     1
 36.779     0
36.7915     0
 36.804     0
36.8165     2
 36.829     0
36.8415     0
 36.854     1
36.8665     0
 36.879     0
36.8915     0
 36.904     0
36.9166     0
36.9291     1
36.9416     0
36.9541     1
36.9666     0
36.9791     0
36.9916     1
37.0041     1
37.0166     0
37.0291     0
37.0416     0
37.0541     0
37.0666     3
37.0792     0
37.0917     0
37.1042     0
37.1167     1
37.1292     0
37.1417     0
37.1542     1
37.1667     0
37.1792     0
37.1917     0
37.2042     0
37.2167     0
37.2292     0
37.2417     1
37.2543     0
37.2668     0
37.2793     1
37.2918     0
37.3043     0
37.3168     0
37.3293     1
37.3418     0
37.3543     2
37.3668     0
37.3793     1
37.3918     0
37.4043     0
37.4168     0
37.4294     1
37.4419     0
37.4544     0
37.4669     1
37.4794     0
37.4919     1
37.5044     1
37.5169     2
37.5294     0
37.5419     1
37.5544     1
37.5669     1
37.5794     0
37.5919     0
37.6045     0
 37.617     1
37.6295     0
 37.642     0
37.6545     0
 37.667     1
37.6795     1
 37.692     0
37.7045     0
 37.717     2
37.7295     0
 37.742     0
37.7545     2
37.7671     0
37.7796     0
37.7921     0
37.8046     1
37.8171     1
37.8296     0
37.8421     1
37.8546     2
37.8671     0
37.8796     0
37.8921     0
37.9046     1
37.9171     0
37.9296     0
37.9422     1
37.9547     0
37.9672     0
37.9797     0
37.9922     0
38.0047     1
38.0172     0
38.0297     1
38.0422     0
38.0547     0
38.0672     0
38.0797     0
38.0922     0
38.1047     0
38.1173     0
38.1298     0
38.1423     0
38.1548     1
38.1673     0
38.1798     0
38.1923     0
38.2048     0
38.2173     0
38.2298     1
38.2423     0
38.2548     0
38.2673     0
38.2798     0
38.2924     0
38.3049     0
38.3174     0
38.3299     0
38.3424     0
38.3549     0
38.3674     0
38.3799     2
38.3924     0
38.4049     1
38.4174     1
38.4299     0
38.4424     0
 38.455     0
38.4675     0
  38.48     0
38.4925     0
 38.505     0
38.5175     0
  38.53     0
38.5425     0
 38.555     1
38.5675     1
  38.58     1
38.5925     0
 38.605     1
38.6175     0
38.6301     0
38.6426     0
38.6551     0
38.6676     1
38.6801     0
38.6926     0
38.7051     0
38.7176     1
38.7301     0
38.7426     0
38.7551     0
38.7676     1
38.7801     0
38.7926     1
38.8052     1
38.8177     1
38.8302     0
38.8427     1
38.8552     1
38.8677     0
38.8802     0
38.8927     0
38.9052     0
38.9177     0
38.9302     1
38.9427     0
38.9552     0
38.9677     0
38.9803     0
38.9928     0
39.0053     0
39.0178     0
39.0303     0
39.0428     0
39.0553     0
39.0678     0
39.0803     1
39.0928     1
39.1053     2
39.1178     0
39.1303     0
39.1429     0
39.1554     0
39.1679     0
39.1804     0
39.1929     0
39.2054     0
39.2179     0
39.2304     0
39.2429     0
39.2554     0
39.2679     0
39.2804     0
39.2929     0
39.3054     0
 39.318     0
39.3305     0
 39.343     0
39.3555     0
 39.368     1
39.3805     1
 39.393     1
39.4055     1
 39.418     1
39.4305     0
 39.443     0
39.4555     0
 39.468     0
39.4805     0
39.4931     0
39.5056     0
39.5181     1
39.5306     0
39.5431     0
39.5556     0
39.5681     0
39.5806     1
39.5931     0
39.6056     0
39.6181     0
39.6306     0
39.6431     1
39.6556     1
39.6682     0
39.6807     0
39.6932     1
39.7057     0
39.7182     0
39.7307     0
39.7432     0
39.7557     0
39.7682     0
39.7807     0
39.7932     0
39.8057     0
39.8182     0
39.8308     0
39.8433     0
39.8558     1
39.8683     0
39.8808     0
39.8933     0
39.9058     0
39.9183     0
39.9308     0
39.9433     0
39.9558     0
39.9683     1
39.9808     0
39.9933     1
40.0059     1
40.0184     0
40.0309     0
40.0434     0
40.0559     0
40.0684     0
40.0809     0
40.0934     0
40.1059     0
40.1184     0
40.1309     1
40.1434     0
40.1559     0
40.1684     0
 40.181     0
40.1935     0
 40.206     0
40.2185     0
 40.231     0
40.2435     0
 40.256     0
40.2685     0
 40.281     0
40.2935     0
 40.306     0
40.3185     1
 40.331     1
40.3435     0
40.3561     0
40.3686     0
40.3811     0
40.3936     1
40.4061     0
40.4186     0
40.4311     2
40.4436     0
40.4561     0
40.4686     0
40.4811     0
40.4936     0
40.5061     0
40.5187     0
40.5312     1
40.5437     0
40.5562     1
40.5687     0
40.5812     0
40.5937     0
40.6062     0
40.6187     0
40.6312     0
40.6437     0
40.6562     0
40.6687     1
40.6812     0
40.6938     0
40.7063     0
40.7188     1
40.7313     0
40.7438     0
40.7563     1
40.7688     0
40.7813     0
40.7938     0
40.8063     0
40.8188     0
40.8313     0
40.8438     0
40.8563     0
40.8689     0
40.8814     0
40.8939     0
40.9064     0
40.9189     0
40.9314     0
40.9439     0
40.9564     0
40.9689     0
40.9814     0
40.9939     0
41.0064     0
41.0189     1
41.0314     0
 41.044     0
41.0565     0
 41.069     0
41.0815     0
 41.094     0
41.1065     0
 41.119     0
41.1315     0
 41.144     0
41.1565     0
 41.169     0
41.1815     0
 41.194     0
41.2066     0
41.2191     0
41.2316     1
41.2441     0
41.2566     1
41.2691     0
41.2816     0
41.2941     0
41.3066     0
41.3191     0
41.3316     0
41.3441     1
41.3566     0
41.3691     1
41.3817     0
41.3942     1
41.4067     0
41.4192     0
41.4317     0
41.4442     0
41.4567     0
41.4692     0
41.4817     0
41.4942     0
41.5067     0
41.5192     0
41.5317     0
41.5442     0
41.5568     0
41.5693     0
41.5818     0
41.5943     0
41.6068     0
41.6193     0
41.6318     0
41.6443     1
41.6568     1
41.6693     0
41.6818     0
41.6943     0
41.7068     0
41.7193     0
41.7319     0
41.7444     0
41.7569     0
41.7694     0
41.7819     0
41.7944     0
41.8069     0
41.8194     0
41.8319     0
41.8444     0
41.8569     0
41.8694     0
41.8819     0
41.8945     0
 41.907     0
41.9195     0
 41.932     0
41.9445     0
 41.957     0
41.9695     0
 41.982     0
41.9945     0
 42.007     0
42.0195     1
 42.032     0
42.0445     0
 42.057     0
42.0696     0
42.0821     0
42.0946     1
42.1071     0
42.1196     0
42.1321     0
42.1446     0
42.1571     0
42.1696     0
42.1821     0
42.1946     0
42.2071     0
42.2196     0
42.2321     0
42.2447     0
42.2572     0
42.2697     0
42.2822     0
42.2947     0
42.3072     0
42.3197     0
42.3322     0
42.3447     0
42.3572     0
42.3697     0
42.3822     0
42.3947     0
42.4072     0
42.4198     0
42.4323     0
42.4448     0
42.4573     0
42.4698     0
42.4823     0
42.4948     0
42.5073     0
42.5198     0
42.5323     0
42.5448     0
42.5573     0
42.5698     0
42.5824     0
42.5949     0
42.6074     0
42.6199     0
42.6324     0
42.6449     0
42.6574     0
42.6699     0
42.6824     0
42.6949     1
42.7074     0
42.7199     0
42.7324     0
42.7449     0
42.7575     0
  42.77     1
42.7825     0
 42.795     0
42.8075     0
  42.82     0
42.8325     0
 42.845     0
42.8575     0
  42.87     0
42.8825     0
 42.895     1
42.9075     0
  42.92     0
42.9326     0
42.9451     0
42.9576     0
42.9701     0
42.9826     0
42.9951     0
43.0076     0
43.0201     0
43.0326     0
43.0451     0
43.0576     0
43.0701     0
43.0826     1
43.0951     0
43.1077     0
43.1202     0
43.1327     0
43.1452     0
43.1577     1
43.1702     0
43.1827     0
43.1952     0
43.2077     0
43.2202     0
43.2327     0
43.2452     0
43.2577     0
43.2703     0
43.2828     0
43.2953     0
43.3078     0
43.3203     0
43.3328     0
43.3453     0
43.3578     0
43.3703     0
43.3828     0
43.3953     0
43.4078     0
43.4203     0
43.4328     0
43.4454     0
43.4579     0
43.4704     0
43.4829     0
43.4954     0
43.5079     0
43.5204     0
43.5329     0
43.5454     0
43.5579     0
43.5704     0
43.5829     0
43.5954     0
43.6079     0
43.6205     0
 43.633     0
43.6455     0
 43.658     0
43.6705     0
 43.683     0
43.6955     0
 43.708     0
43.7205     0
 43.733     0
43.7455     0
 43.758     0
43.7705     0
 43.783     0
43.7956     0
43.8081     0
43.8206     0
43.8331     0
43.8456     0
43.8581     0
43.8706     0
43.8831     0
43.8956     0
43.9081     0
43.9206     0
43.9331     0
43.9456     0
43.9582     0
43.9707     0
43.9832     0
43.9957     0
44.0082     0
44.0207     0
44.0332     0
44.0457     0
44.0582     0
44.0707     0
44.0832     0
44.0957     0
44.1082     0
44.1207     0
44.1333     0
44.1458     0
44.1583     0
44.1708     0
44.1833     0
44.1958     0
44.2083     0
44.2208     1
44.2333     0
44.2458     0
44.2583     0
44.2708     0
44.2833     0
44.2958     0
44.3084     0
44.3209     0
44.3334     0
44.3459     0
44.3584     0
44.3709     0
44.3834     0
44.3959     0
44.4084     0
44.4209     0
44.4334     0
44.4459     0
44.4584     0
44.4709     0
44.4835     0
 44.496     0
44.5085     0
 44.521     0
44.5335     0
 44.546     0
44.5585     0
 44.571     0
44.5835     0
 44.596     0
44.6085     0
 44.621     0
44.6335     1
44.6461     0
44.6586     0
44.6711     0
44.6836     0
44.6961     0
44.7086     0
44.7211     0
44.7336     0
44.7461     0
44.7586     0
44.7711     0
44.7836     0
44.7961     0
44.8086     0
44.8212     0
44.8337     0
44.8462     0
44.8587     0
44.8712     0
44.8837     0
44.8962     0
44.9087     0
44.9212     0
44.9337     0
44.9462     0
44.9587     0
44.9712     0
44.9837     0
44.9963     0
45.0088     0
45.0213     0
45.0338     0
45.0463     0
45.0588     0
45.0713     0
45.0838     0
45.0963     0
45.1088     0
45.1213     0
45.1338     0
45.1463     0
45.1588     0
45.1714     0
45.1839     0
45.1964     0
45.2089     0
45.2214     0
45.2339     0
45.2464     0
45.2589     0
45.2714     0
45.2839     0
45.2964     0
45.3089     0
45.3214     0
 45.334     0
45.3465     0
 45.359     0
45.3715     0
 45.384     0
45.3965     0
 45.409     0
45.4215     0
 45.434     0
45.4465     0
 45.459     0
45.4715     0
 45.484     0
45.4965     0
45.5091     0
45.5216     0
45.5341     1
45.5466     0
45.5591     0
45.5716     0
45.5841     0
45.5966     0
45.6091     0
45.6216     0
45.6341     0
45.6466     0
45.6591     0
45.6716     0
45.6842     0
45.6967     0
45.7092     0
45.7217     0
45.7342     0
45.7467     0
45.7592     0
45.7717     0
45.7842     0
45.7967     0
45.8092     0
45.8217     0
45.8342     0
45.8467     0
45.8593     0
45.8718     0
45.8843     0
45.8968     1
45.9093     0
45.9218     0
45.9343     0
45.9468     0
45.9593     0
45.9718     0
45.9843     0
45.9968     0
46.0093     0
46.0219     0
46.0344     0
46.0469     0
46.0594     0
46.0719     0
46.0844     0
46.0969     0
46.1094     0
46.1219     0
46.1344     0
46.1469     0
46.1594     0
46.1719     0
46.1844     0
 46.197     0
46.2095     0
 46.222     0
46.2345     0
 46.247     0
46.2595     0
 46.272     0
46.2845     0
 46.297     0
46.3095     0
 46.322     0
46.3345     0
 46.347     0
46.3595     0
46.3721     0
46.3846     0
46.3971     0
46.4096     0
46.4221     0
46.4346     0
46.4471     0
46.4596     0
46.4721     0
46.4846     0
46.4971     0
46.5096     0
46.5221     0
46.5346     0
46.5472     0
46.5597     0
46.5722     0
46.5847     0
46.5972     0
46.6097     0
46.6222     0
46.6347     0
46.6472     0
46.6597     0
46.6722     0
46.6847     0
46.6972     0
46.7098     0
46.7223     0
46.7348     0
46.7473     0
46.7598     0
46.7723     0
46.7848     0
46.7973     0
46.8098     0
46.8223     0
46.8348     0
46.8473     0
46.8598     0
46.8723     0
46.8849     0
46.8974     0
46.9099     0
46.9224     0
46.9349     0
46.9474     0
46.9599     0
46.9724     0
46.9849     0
46.9974     0
47.0099     0
47.0224     0
47.0349     0
47.0474     0
  47.06     0
47.0725     0
 47.085     0
47.0975     0
  47.11     0
47.1225     0
 47.135     0
47.1475     0
  47.16     0
47.1725     0
 47.185     0
47.1975     0
  47.21     0
47.2225     0
47.2351     0
47.2476     0
47.2601     0
47.2726     0
47.2851     0
47.2976     0
47.3101     0
47.3226     0
47.3351     0
47.3476     0
47.3601     0
47.3726     0
47.3851     0
47.3977     0
47.4102     0
47.4227     0
47.4352     0
47.4477     0
47.4602     0
47.4727     0
47.4852     0
47.4977     0
47.5102     0
47.5227     0
47.5352     0
47.5477     0
47.5602     0
47.5728     0
47.5853     0
47.5978     0
47.6103     0
47.6228     0
47.6353     0
47.6478     0
47.6603     0
47.6728     0
47.6853     0
47.6978     0
47.7103     0
47.7228     0
47.7353     0
47.7479     0
47.7604     0
47.7729     0
47.7854     0
47.7979     0
47.8104     0
47.8229     0
47.8354     0
47.8479     0
47.8604     0
47.8729     0
47.8854     0
47.8979     0
47.9104     0
 47.923     0
47.9355     0
 47.948     0
47.9605     0
 47.973     0
47.9855     0
 47.998     0
48.0105     0
 48.023     0
48.0355     0
 48.048     0
48.0605     0
 48.073     0
48.0856     0
48.0981     0
48.1106     0
48.1231     0
48.1356     0
48.1481     0
48.1606     0
48.1731     0
48.1856     0
48.1981     0
48.2106     0
48.2231     0
48.2356     0
48.2481     0
48.2607     0
48.2732     0
48.2857     0
48.2982     0
48.3107     0
48.3232     0
48.3357     0
48.3482     0
48.3607     0
48.3732     0
48.3857     0
48.3982     0
48.4107     0
48.4232     0
48.4358     0
48.4483     0
48.4608     0
48.4733     0
48.4858     0
48.4983     0
48.5108     0
48.5233     0
48.5358     0
48.5483     0
48.5608     0
48.5733     0
48.5858     0
48.5983     0
48.6109     0
48.6234     0
48.6359     0
48.6484     0
48.6609     0
48.6734     0
48.6859     0
48.6984     0
48.7109     0
48.7234     0
48.7359     0
48.7484     0
48.7609     0
48.7735     0
 48.786     0
48.7985     0
 48.811     0
48.8235     0
 48.836     0
48.8485     0
 48.861     0
48.8735     0
 48.886     0
48.8985     0
 48.911     0
48.9235     0
 48.936     0
48.9486     0
48.9611     0
48.9736     0
48.9861     0
48.9986     0
49.0111     0
49.0236     0
49.0361     0
49.0486     0
49.0611     0
49.0736     0
49.0861     0
49.0986     0
49.1111     0
49.1237     0
49.1362     0
49.1487     0
49.1612     0
49.1737     0
49.1862     0
49.1987     0
49.2112     0
49.2237     0
49.2362     0
49.2487     0
49.2612     0
49.2737     0
49.2862     0
49.2988     0
49.3113     0
49.3238     0
49.3363     0
49.3488     0
49.3613     0
49.3738     0
49.3863     0
49.3988     0
49.4113     0
49.4238     0
49.4363     0
49.4488     0
49.4614     0
49.4739     0
49.4864     0
49.4989     0
49.5114     0
49.5239     0
49.5364     0
49.5489     0
49.5614     0
49.5739     0
49.5864     0
49.5989     0
49.6114     0
49.6239     0
49.6365     0
 49.649     0
49.6615     0
 49.674     0
49.6865     0
 49.699     0
49.7115     0
 49.724     0
49.7365     0
 49.749     0
49.7615     0
 49.774     0
49.7865     0
 49.799     0
49.8116     0
49.8241     0
49.8366     0
49.8491     0
49.8616     0
49.8741     0
49.8866     0
49.8991     0
49.9116     0
49.9241     0
49.9366     0
49.9491     0
49.9616     0
49.9741     0
49.9867     0
49.9992     0
50.0117     0
50.0242     0
