RÖNTEC GmbH Berlin, Germany
Quantax 1.2

Date: 3/3/2015 12:34:42 PM
Real time: 60891
Life time: 60002
Pulse density: 5891


Detector type: XFLASH 3001
Window type: 
Detector thickness: 0.45
Si dead layer:0

Calibration, lin.: 12.507
Calibration, abs.: -1193.107
Mn FWHM: 142.37
Fano factor: 0.105
Channels: 4096

Energy Counts
-1.1931     0
-1.1806     0
-1.1681     0
-1.1556     0
-1.1431     0
-1.1306     0
-1.1181     0
-1.1056     0
 -1.093     0
-1.0805     0
 -1.068     0
-1.0555     0
 -1.043     0
-1.0305     0
 -1.018     0
-1.0055     0
 -0.993     0
-0.9805     0
 -0.968     0
-0.9555     0
 -0.943     0
-0.9305     0
-0.9179     0
-0.9054     0
-0.8929     0
-0.8804     0
-0.8679     0
-0.8554     0
-0.8429     0
-0.8304     0
-0.8179     0
-0.8054     0
-0.7929     0
-0.7804     0
-0.7679     0
-0.7554     0
-0.7428     0
-0.7303     0
-0.7178     0
-0.7053     0
-0.6928     0
-0.6803     0
-0.6678     0
-0.6553     0
-0.6428     0
-0.6303     0
-0.6178     0
-0.6053     0
-0.5928     0
-0.5803     0
-0.5677     0
-0.5552     0
-0.5427     0
-0.5302     0
-0.5177     0
-0.5052     0
-0.4927     0
-0.4802     0
-0.4677     0
-0.4552     0
-0.4427     0
-0.4302     0
-0.4177     0
-0.4051     0
-0.3926     0
-0.3801     0
-0.3676     0
-0.3551     0
-0.3426     0
-0.3301     0
-0.3176     0
-0.3051     0
-0.2926     0
-0.2801     0
-0.2676     0
-0.2551     0
-0.2426     0
  -0.23     0
-0.2175     0
 -0.205     0
-0.1925     0
  -0.18     0
-0.1675     0
 -0.155     0
-0.1425     6
  -0.13    14
-0.1175    74
 -0.105   272
-0.0925   873
  -0.08  2523
-0.0675  6051
-0.0549 13455
-0.0424 25556
-0.0299 42923
-0.0174 61768
-0.0049 78640
 0.0076 87266
 0.0201 84279
 0.0326 72044
 0.0451 53148
 0.0576 34461
 0.0701 19518
 0.0826  9608
 0.0951  4218
 0.1076  1539
 0.1202   564
 0.1327   151
 0.1452    44
 0.1577    19
 0.1702     1
 0.1827     3
 0.1952     4
 0.2077     0
 0.2202     1
 0.2327     0
 0.2452     0
 0.2577     0
 0.2702     0
 0.2828     1
 0.2953     0
 0.3078     0
 0.3203     0
 0.3328     0
 0.3453     1
 0.3578     0
 0.3703     0
 0.3828     0
 0.3953     0
 0.4078     0
 0.4203     0
 0.4328     6
 0.4453    26
 0.4579    36
 0.4704    36
 0.4829    38
 0.4954    34
 0.5079    36
 0.5204    40
 0.5329    48
 0.5454    23
 0.5579    33
 0.5704    43
 0.5829    43
 0.5954    43
 0.6079    44
 0.6204    36
  0.633    39
 0.6455    25
  0.658    38
 0.6705    23
  0.683    27
 0.6955    31
  0.708    32
 0.7205    25
  0.733    35
 0.7455    30
  0.758    22
 0.7705    24
  0.783    30
 0.7955    29
 0.8081    23
 0.8206    28
 0.8331    16
 0.8456    22
 0.8581    32
 0.8706    28
 0.8831    28
 0.8956    25
 0.9081    22
 0.9206    21
 0.9331    26
 0.9456    28
 0.9581    34
 0.9707    27
 0.9832    20
 0.9957    26
 1.0082    31
 1.0207    14
 1.0332    22
 1.0457    27
 1.0582    21
 1.0707    23
 1.0832    19
 1.0957    17
 1.1082    21
 1.1207    26
 1.1332    17
 1.1458    18
 1.1583    21
 1.1708    27
 1.1833    16
 1.1958    16
 1.2083    14
 1.2208    13
 1.2333    15
 1.2458    16
 1.2583    17
 1.2708    14
 1.2833    32
 1.2958    26
 1.3083    12
 1.3209    23
 1.3334    11
 1.3459    21
 1.3584    16
 1.3709    16
 1.3834    15
 1.3959    17
 1.4084    12
 1.4209    16
 1.4334    15
 1.4459    19
 1.4584    18
 1.4709    22
 1.4834    22
  1.496    18
 1.5085    23
  1.521    17
 1.5335    19
  1.546    15
 1.5585    18
  1.571    18
 1.5835    22
  1.596    11
 1.6085    24
  1.621    17
 1.6335    18
  1.646    19
 1.6586    20
 1.6711    22
 1.6836    27
 1.6961    34
 1.7086    27
 1.7211    28
 1.7336    34
 1.7461    43
 1.7586    35
 1.7711    33
 1.7836    33
 1.7961    31
 1.8086    30
 1.8211    23
 1.8337    26
 1.8462    26
 1.8587    19
 1.8712    17
 1.8837    28
 1.8962    23
 1.9087    30
 1.9212    18
 1.9337    18
 1.9462    17
 1.9587    35
 1.9712    26
 1.9837    24
 1.9962    21
 2.0088    22
 2.0213    25
 2.0338    26
 2.0463    24
 2.0588    31
 2.0713    51
 2.0838    47
 2.0963    76
 2.1088    91
 2.1213   101
 2.1338    90
 2.1463   123
 2.1588   106
 2.1713   135
 2.1839   105
 2.1964   112
 2.2089    98
 2.2214    98
 2.2339    79
 2.2464   104
 2.2589    77
 2.2714    80
 2.2839    81
 2.2964   101
 2.3089   124
 2.3214   146
 2.3339   153
 2.3465   162
  2.359   184
 2.3715   188
  2.384   190
 2.3965   215
  2.409   197
 2.4215   221
  2.434   157
 2.4465   200
  2.459   200
 2.4715   151
  2.484   146
 2.4965   148
  2.509   102
 2.5216    90
 2.5341    54
 2.5466    58
 2.5591    41
 2.5716    49
 2.5841    31
 2.5966    30
 2.6091    37
 2.6216    31
 2.6341    56
 2.6466    40
 2.6591    40
 2.6716    50
 2.6841    45
 2.6967    41
 2.7092    33
 2.7217    31
 2.7342    23
 2.7467    23
 2.7592    34
 2.7717    23
 2.7842    27
 2.7967    23
 2.8092    30
 2.8217    21
 2.8342    11
 2.8467    18
 2.8592    30
 2.8718    22
 2.8843    24
 2.8968    29
 2.9093    30
 2.9218    34
 2.9343    44
 2.9468    48
 2.9593    60
 2.9718    39
 2.9843    46
 2.9968    50
 3.0093    42
 3.0218    38
 3.0344    43
 3.0469    35
 3.0594    34
 3.0719    33
 3.0844    20
 3.0969    40
 3.1094    20
 3.1219    40
 3.1344    23
 3.1469    42
 3.1594    31
 3.1719    44
 3.1844    31
 3.1969    34
 3.2095    33
  3.222    31
 3.2345    44
  3.247    42
 3.2595    56
  3.272    56
 3.2845    67
  3.297    62
 3.3095    96
  3.322    75
 3.3345    71
  3.347    69
 3.3595    70
  3.372    61
 3.3846    49
 3.3971    41
 3.4096    39
 3.4221    32
 3.4346    29
 3.4471    23
 3.4596    18
 3.4721    11
 3.4846    22
 3.4971    21
 3.5096    12
 3.5221    24
 3.5346    21
 3.5471    28
 3.5597    30
 3.5722    43
 3.5847    48
 3.5972    60
 3.6097    84
 3.6222    98
 3.6347   123
 3.6472   153
 3.6597   182
 3.6722   215
 3.6847   232
 3.6972   221
 3.7097   250
 3.7223   249
 3.7348   180
 3.7473   186
 3.7598   166
 3.7723   121
 3.7848    98
 3.7973    57
 3.8098    45
 3.8223    35
 3.8348    26
 3.8473    30
 3.8598    20
 3.8723    18
 3.8848    19
 3.8974    36
 3.9099    15
 3.9224    28
 3.9349    37
 3.9474    37
 3.9599    28
 3.9724    31
 3.9849    45
 3.9974    40
 4.0099    53
 4.0224    40
 4.0349    37
 4.0474    42
 4.0599    43
 4.0725    37
  4.085    39
 4.0975    35
   4.11    38
 4.1225    23
  4.135    19
 4.1475    29
   4.16    18
 4.1725    11
  4.185    13
 4.1975    16
   4.21    17
 4.2225    17
  4.235    20
 4.2476    17
 4.2601    15
 4.2726    12
 4.2851    15
 4.2976    20
 4.3101    21
 4.3226    19
 4.3351    12
 4.3476    14
 4.3601    17
 4.3726    20
 4.3851    22
 4.3976    26
 4.4102    19
 4.4227    28
 4.4352    31
 4.4477    33
 4.4602    51
 4.4727    53
 4.4852    63
 4.4977    65
 4.5102    59
 4.5227    69
 4.5352    60
 4.5477    59
 4.5602    60
 4.5727    51
 4.5853    48
 4.5978    47
 4.6103    51
 4.6228    43
 4.6353    34
 4.6478    39
 4.6603    35
 4.6728    36
 4.6853    37
 4.6978    31
 4.7103    25
 4.7228    28
 4.7353    29
 4.7478    19
 4.7604    31
 4.7729    17
 4.7854    18
 4.7979    21
 4.8104    27
 4.8229    27
 4.8354    20
 4.8479    28
 4.8604    25
 4.8729    33
 4.8854    26
 4.8979    33
 4.9104    30
 4.9229    38
 4.9355    28
  4.948    38
 4.9605    33
  4.973    22
 4.9855    25
  4.998    22
 5.0105    21
  5.023    24
 5.0355    28
  5.048    23
 5.0605    26
  5.073    30
 5.0855    23
 5.0981    31
 5.1106    25
 5.1231    24
 5.1356    23
 5.1481    35
 5.1606    28
 5.1731    14
 5.1856    24
 5.1981    20
 5.2106    19
 5.2231    24
 5.2356    22
 5.2481    20
 5.2606    23
 5.2732    27
 5.2857    27
 5.2982    28
 5.3107    38
 5.3232    19
 5.3357    24
 5.3482    32
 5.3607    20
 5.3732    28
 5.3857    31
 5.3982    27
 5.4107    33
 5.4232    30
 5.4357    28
 5.4483    28
 5.4608    28
 5.4733    38
 5.4858    32
 5.4983    29
 5.5108    33
 5.5233    33
 5.5358    33
 5.5483    26
 5.5608    30
 5.5733    39
 5.5858    30
 5.5983    39
 5.6108    39
 5.6234    40
 5.6359    41
 5.6484    31
 5.6609    39
 5.6734    46
 5.6859    46
 5.6984    35
 5.7109    31
 5.7234    41
 5.7359    42
 5.7484    37
 5.7609    30
 5.7734    39
  5.786    36
 5.7985    40
  5.811    39
 5.8235    35
  5.836    44
 5.8485    41
  5.861    36
 5.8735    43
  5.886    27
 5.8985    25
  5.911    41
 5.9235    55
  5.936    42
 5.9485    45
 5.9611    31
 5.9736    49
 5.9861    39
 5.9986    39
 6.0111    50
 6.0236    38
 6.0361    39
 6.0486    37
 6.0611    30
 6.0736    41
 6.0861    44
 6.0986    37
 6.1111    50
 6.1236    40
 6.1362    45
 6.1487    57
 6.1612    56
 6.1737    50
 6.1862    66
 6.1987    79
 6.2112   109
 6.2237   139
 6.2362   178
 6.2487   252
 6.2612   399
 6.2737   565
 6.2862   828
 6.2988  1099
 6.3113  1480
 6.3238  2062
 6.3363  2445
 6.3488  3013
 6.3613  3546
 6.3738  3891
 6.3863  4236
 6.3988  4364
 6.4113  4427
 6.4238  4082
 6.4363  3894
 6.4488  3485
 6.4613  2994
 6.4739  2490
 6.4864  1909
 6.4989  1437
 6.5114  1005
 6.5239   720
 6.5364   513
 6.5489   351
 6.5614   221
 6.5739   122
 6.5864    91
 6.5989    81
 6.6114    73
 6.6239    27
 6.6364    40
  6.649    43
 6.6615    36
  6.674    45
 6.6865    36
  6.699    44
 6.7115    48
  6.724    46
 6.7365    43
  6.749    41
 6.7615    37
  6.774    47
 6.7865    43
  6.799    41
 6.8115    50
 6.8241    44
 6.8366    51
 6.8491    43
 6.8616    73
 6.8741    70
 6.8866    68
 6.8991    73
 6.9116   108
 6.9241   121
 6.9366   181
 6.9491   187
 6.9616   230
 6.9741   303
 6.9867   365
 6.9992   409
 7.0117   508
 7.0242   570
 7.0367   609
 7.0492   682
 7.0617   631
 7.0742   647
 7.0867   572
 7.0992   535
 7.1117   434
 7.1242   398
 7.1367   309
 7.1492   253
 7.1618   217
 7.1743   161
 7.1868   117
 7.1993   122
 7.2118    77
 7.2243    67
 7.2368    64
 7.2493    50
 7.2618    44
 7.2743    53
 7.2868    55
 7.2993    52
 7.3118    53
 7.3243    65
 7.3369    60
 7.3494    64
 7.3619    61
 7.3744    76
 7.3869    80
 7.3994    75
 7.4119    82
 7.4244    80
 7.4369    63
 7.4494    75
 7.4619    72
 7.4744    69
 7.4869    68
 7.4994    77
  7.512    71
 7.5245    60
  7.537    62
 7.5495    56
  7.562    36
 7.5745    60
  7.587    67
 7.5995    59
  7.612    53
 7.6245    59
  7.637    49
 7.6495    61
  7.662    50
 7.6746    57
 7.6871    48
 7.6996    55
 7.7121    58
 7.7246    54
 7.7371    63
 7.7496    60
 7.7621    64
 7.7746    52
 7.7871    57
 7.7996    60
 7.8121    62
 7.8246    54
 7.8371    50
 7.8497    70
 7.8622    65
 7.8747    65
 7.8872    71
 7.8997    74
 7.9122    59
 7.9247   124
 7.9372    93
 7.9497   112
 7.9622   103
 7.9747   122
 7.9872   131
 7.9997   149
 8.0122   148
 8.0248   160
 8.0373   152
 8.0498   183
 8.0623   185
 8.0748   179
 8.0873   182
 8.0998   185
 8.1123   217
 8.1248   191
 8.1373   216
 8.1498   187
 8.1623   227
 8.1748   217
 8.1873   195
 8.1999   187
 8.2124   244
 8.2249   261
 8.2374   285
 8.2499   303
 8.2624   355
 8.2749   390
 8.2874   453
 8.2999   461
 8.3124   594
 8.3249   688
 8.3374   701
 8.3499   751
 8.3625   914
  8.375   872
 8.3875   918
    8.4   989
 8.4125   918
  8.425   813
 8.4375   807
   8.45   698
 8.4625   596
  8.475   518
 8.4875   446
    8.5   372
 8.5125   287
  8.525   231
 8.5376   187
 8.5501   156
 8.5626   140
 8.5751   113
 8.5876   107
 8.6001    74
 8.6126    87
 8.6251    84
 8.6376    83
 8.6501    84
 8.6626    88
 8.6751    94
 8.6876    86
 8.7001    93
 8.7127    80
 8.7252    83
 8.7377    90
 8.7502    88
 8.7627    62
 8.7752    89
 8.7877    79
 8.8002    77
 8.8127    87
 8.8252    77
 8.8377    77
 8.8502    86
 8.8627    79
 8.8752    90
 8.8878    65
 8.9003    88
 8.9128    77
 8.9253    86
 8.9378    72
 8.9503    75
 8.9628    77
 8.9753    89
 8.9878    82
 9.0003   103
 9.0128    97
 9.0253   110
 9.0378   120
 9.0504   154
 9.0629   171
 9.0754   171
 9.0879   230
 9.1004   256
 9.1129   340
 9.1254   324
 9.1379   377
 9.1504   384
 9.1629   371
 9.1754   400
 9.1879   431
 9.2004   427
 9.2129   415
 9.2255   408
  9.238   394
 9.2505   379
  9.263   329
 9.2755   279
  9.288   287
 9.3005   250
  9.313   243
 9.3255   228
  9.338   226
 9.3505   232
  9.363   233
 9.3755   195
  9.388   221
 9.4006   219
 9.4131   233
 9.4256   218
 9.4381   235
 9.4506   278
 9.4631   235
 9.4756   280
 9.4881   286
 9.5006   273
 9.5131   312
 9.5256   337
 9.5381   383
 9.5506   470
 9.5631   479
 9.5757   548
 9.5882   612
 9.6007   665
 9.6132   714
 9.6257   810
 9.6382   937
 9.6507   948
 9.6632  1034
 9.6757   965
 9.6882   945
 9.7007  1002
 9.7132   970
 9.7257   905
 9.7383   868
 9.7508   744
 9.7633   706
 9.7758   602
 9.7883   557
 9.8008   477
 9.8133   467
 9.8258   416
 9.8383   340
 9.8508   315
 9.8633   315
 9.8758   343
 9.8883   293
 9.9008   329
 9.9134   341
 9.9259   337
 9.9384   286
 9.9509   308
 9.9634   300
 9.9759   329
 9.9884   275
10.0009   293
10.0134   265
10.0259   205
10.0384   200
10.0509   189
10.0634   163
10.0759   168
10.0885   167
 10.101   119
10.1135   102
 10.126   107
10.1385   119
 10.151   105
10.1635    81
 10.176   115
10.1885   107
 10.201    80
10.2135   112
 10.226   109
10.2385   101
 10.251   147
10.2636   142
10.2761   157
10.2886   218
10.3011   223
10.3136   338
10.3261   413
10.3386   492
10.3511   655
10.3636   810
10.3761  1006
10.3886  1278
10.4011  1516
10.4136  1882
10.4262  2307
10.4387  2658
10.4512  3240
10.4637  3831
10.4762  4349
10.4887  4904
10.5012  5193
10.5137  5611
10.5262  5736
10.5387  5870
10.5512  5847
10.5637  5636
10.5762  5251
10.5887  4887
10.6013  4569
10.6138  3986
10.6263  3495
10.6388  2842
10.6513  2292
10.6638  1940
10.6763  1453
10.6888  1134
10.7013   890
10.7138   618
10.7263   488
10.7388   353
10.7513   227
10.7638   221
10.7764   147
10.7889   114
10.8014    90
10.8139    79
10.8264    74
10.8389    84
10.8514    81
10.8639    51
10.8764    61
10.8889    66
10.9014    75
10.9139    69
10.9264    64
10.9389    63
10.9515    61
 10.964    50
10.9765    67
 10.989    72
11.0015    59
 11.014    45
11.0265    52
 11.039    68
11.0515    68
 11.064    67
11.0765    71
 11.089    71
11.1015    65
11.1141    74
11.1266    69
11.1391    87
11.1516    78
11.1641    80
11.1766   102
11.1891   129
11.2016   126
11.2141   129
11.2266   135
11.2391   163
11.2516   155
11.2641   170
11.2766   212
11.2892   197
11.3017   226
11.3142   238
11.3267   259
11.3392   259
11.3517   275
11.3642   294
11.3767   330
11.3892   299
11.4017   334
11.4142   296
11.4267   299
11.4392   285
11.4517   314
11.4643   316
11.4768   282
11.4893   235
11.5018   266
11.5143   219
11.5268   228
11.5393   195
11.5518   214
11.5643   192
11.5768   207
11.5893   165
11.6018   152
11.6143   133
11.6268   129
11.6394   115
11.6519   125
11.6644   103
11.6769    99
11.6894    99
11.7019    96
11.7144    81
11.7269    65
11.7394    57
11.7519    46
11.7644    53
11.7769    59
11.7894    47
 11.802    46
11.8145    48
 11.827    47
11.8395    67
 11.852    55
11.8645    46
 11.877    48
11.8895    47
 11.902    50
11.9145    52
 11.927    44
11.9395    66
 11.952    63
11.9645    57
11.9771    84
11.9896    81
12.0021    62
12.0146    74
12.0271    84
12.0396    87
12.0521    89
12.0646   100
12.0771   122
12.0896   129
12.1021   146
12.1146   164
12.1271   160
12.1396   184
12.1522   187
12.1647   189
12.1772   233
12.1897   208
12.2022   247
12.2147   242
12.2272   261
12.2397   281
12.2522   309
12.2647   323
12.2772   301
12.2897   290
12.3022   316
12.3147   314
12.3273   311
12.3398   294
12.3523   287
12.3648   292
12.3773   309
12.3898   331
12.4023   381
12.4148   484
12.4273   524
12.4398   700
12.4523   865
12.4648  1054
12.4773  1306
12.4899  1617
12.5024  2019
12.5149  2312
12.5274  2604
12.5399  2966
12.5524  3264
12.5649  3607
12.5774  3784
12.5899  4147
12.6024  4043
12.6149  3989
12.6274  3905
12.6399  3664
12.6524  3409
 12.665  3128
12.6775  2924
  12.69  2545
12.7025  2214
 12.715  1809
12.7275  1592
  12.74  1371
12.7525  1153
 12.765   959
12.7775   817
  12.79   629
12.8025   579
 12.815   462
12.8275   373
12.8401   367
12.8526   310
12.8651   296
12.8776   255
12.8901   245
12.9026   231
12.9151   209
12.9276   210
12.9401   204
12.9526   181
12.9651   213
12.9776   180
12.9901   189
13.0026   210
13.0152   162
13.0277   184
13.0402   162
13.0527   161
13.0652   158
13.0777   127
13.0902   100
13.1027   104
13.1152   110
13.1277    85
13.1402    73
13.1527    59
13.1652    48
13.1778    46
13.1903    44
13.2028    49
13.2153    33
13.2278    34
13.2403    38
13.2528    50
13.2653    40
13.2778    48
13.2903    60
13.3028    55
13.3153    60
13.3278    73
13.3403    64
13.3529    57
13.3654    61
13.3779    56
13.3904    50
13.4029    50
13.4154    72
13.4279    45
13.4404    57
13.4529    42
13.4654    43
13.4779    40
13.4904    23
13.5029    27
13.5154    27
 13.528    23
13.5405    31
 13.553    23
13.5655    28
 13.578    19
13.5905    29
 13.603    15
13.6155    21
 13.628    24
13.6405    27
 13.653    29
13.6655    23
 13.678    27
13.6905    33
13.7031    25
13.7156    34
13.7281    28
13.7406    23
13.7531    27
13.7656    23
13.7781    23
13.7906    20
13.8031    24
13.8156    23
13.8281    18
13.8406    37
13.8531    23
13.8657    24
13.8782    21
13.8907    21
13.9032    18
13.9157    15
13.9282    20
13.9407    15
13.9532    14
13.9657    20
13.9782    16
13.9907    22
14.0032    16
14.0157    15
14.0282    14
14.0408    13
14.0533    17
14.0658    21
14.0783    29
14.0908    15
14.1033    27
14.1158    22
14.1283    22
14.1408    17
14.1533    28
14.1658    18
14.1783    24
14.1908    28
14.2033    31
14.2159    36
14.2284    25
14.2409    29
14.2534    41
14.2659    36
14.2784    33
14.2909    29
14.3034    45
14.3159    31
14.3284    34
14.3409    33
14.3534    24
14.3659    33
14.3784    17
 14.391    31
14.4035    22
 14.416    31
14.4285    32
 14.441    33
14.4535    29
 14.466    32
14.4785    31
 14.491    27
14.5035    34
 14.516    30
14.5285    50
 14.541    48
14.5536    57
14.5661    85
14.5786    95
14.5911   105
14.6036   144
14.6161   167
14.6286   196
14.6411   233
14.6536   256
14.6661   330
14.6786   330
14.6911   370
14.7036   397
14.7161   436
14.7287   429
14.7412   430
14.7537   441
14.7662   414
14.7787   406
14.7912   404
14.8037   380
14.8162   335
14.8287   284
14.8412   281
14.8537   237
14.8662   189
14.8787   184
14.8912   131
14.9038   113
14.9163   102
14.9288    77
14.9413    72
14.9538    68
14.9663    78
14.9788    62
14.9913    84
15.0038    70
15.0163    76
15.0288   100
15.0413    78
15.0538   111
15.0663   133
15.0789   121
15.0914   128
15.1039   138
15.1164   142
15.1289   132
15.1414   146
15.1539   163
15.1664   139
15.1789   151
15.1914   135
15.2039   101
15.2164   113
15.2289   122
15.2415    80
 15.254    79
15.2665    72
 15.279    70
15.2915    45
 15.304    40
15.3165    46
 15.329    34
15.3415    37
 15.354    30
15.3665    26
 15.379    24
15.3915    19
 15.404    21
15.4166    13
15.4291    15
15.4416    23
15.4541    21
15.4666     9
15.4791    19
15.4916    17
15.5041    11
15.5166    13
15.5291    35
15.5416    24
15.5541    18
15.5666    21
15.5791    26
15.5917    20
15.6042    27
15.6167    18
15.6292    17
15.6417    31
15.6542    31
15.6667    23
15.6792    38
15.6917    50
15.7042    33
15.7167    33
15.7292    45
15.7417    26
15.7542    40
15.7668    39
15.7793    43
15.7918    43
15.8043    33
15.8168    23
15.8293    27
15.8418    25
15.8543    21
15.8668    26
15.8793    18
15.8918    19
15.9043    19
15.9168    11
15.9294    10
15.9419    17
15.9544    11
15.9669    10
15.9794    18
15.9919    11
16.0044    16
16.0169     6
16.0294    11
16.0419    10
16.0544     9
16.0669    16
16.0794    12
16.0919    10
16.1045     3
 16.117     9
16.1295     8
 16.142    14
16.1545    13
 16.167    12
16.1795    14
 16.192     9
16.2045     8
 16.217    12
16.2295    15
 16.242    11
16.2545    11
 16.267     8
16.2796    20
16.2921    14
16.3046    11
16.3171    10
16.3296    10
16.3421    14
16.3546    11
16.3671    12
16.3796    11
16.3921    11
16.4046     9
16.4171    15
16.4296     9
16.4421    17
16.4547    13
16.4672     8
16.4797    10
16.4922    17
16.5047    12
16.5172    16
16.5297    14
16.5422    13
16.5547    12
16.5672    14
16.5797    10
16.5922    11
16.6047     7
16.6173    11
16.6298    11
16.6423    11
16.6548     5
16.6673    14
16.6798    16
16.6923    18
16.7048     9
16.7173    10
16.7298     8
16.7423    20
16.7548     9
16.7673     9
16.7798    12
16.7924    13
16.8049    11
16.8174     9
16.8299    11
16.8424     8
16.8549     7
16.8674    14
16.8799     9
16.8924    11
16.9049    16
16.9174    13
16.9299    12
16.9424     9
16.9549    17
16.9675     7
  16.98    14
16.9925    11
 17.005    18
17.0175    10
  17.03    13
17.0425    13
 17.055    16
17.0675     9
  17.08    16
17.0925    11
 17.105     9
17.1175     9
  17.13     6
17.1426    13
17.1551    11
17.1676    15
17.1801    14
17.1926     9
17.2051    12
17.2176     9
17.2301     8
17.2426    14
17.2551    14
17.2676     8
17.2801    11
17.2926    13
17.3052     9
17.3177     8
17.3302     5
17.3427    10
17.3552    13
17.3677    11
17.3802    16
17.3927     7
17.4052     5
17.4177     4
17.4302    10
17.4427    12
17.4552     7
17.4677    12
17.4803    13
17.4928    10
17.5053     9
17.5178    16
17.5303    10
17.5428    15
17.5553    16
17.5678    10
17.5803    11
17.5928    12
17.6053     9
17.6178    13
17.6303     8
17.6428    18
17.6554    14
17.6679     9
17.6804    10
17.6929    12
17.7054    11
17.7179    11
17.7304    10
17.7429    16
17.7554    13
17.7679    12
17.7804    14
17.7929    10
17.8054     8
17.8179    11
17.8305    10
 17.843    13
17.8555     7
 17.868    11
17.8805    11
 17.893    10
17.9055    12
 17.918     8
17.9305     8
 17.943    14
17.9555    10
 17.968    10
17.9805    10
17.9931    11
18.0056    13
18.0181     6
18.0306    12
18.0431     8
18.0556    14
18.0681    12
18.0806     5
18.0931     6
18.1056    15
18.1181    10
18.1306    10
18.1431     5
18.1556     2
18.1682     7
18.1807    13
18.1932    14
18.2057     8
18.2182     8
18.2307     6
18.2432     7
18.2557    12
18.2682    12
18.2807     9
18.2932    11
18.3057    10
18.3182     9
18.3307     5
18.3433    11
18.3558    10
18.3683     8
18.3808     6
18.3933     7
18.4058    11
18.4183    12
18.4308     9
18.4433     8
18.4558    14
18.4683    12
18.4808     6
18.4933     8
18.5058    11
18.5184    11
18.5309     9
18.5434    16
18.5559    16
18.5684    11
18.5809     7
18.5934     9
18.6059    10
18.6184    13
18.6309     9
18.6434     6
18.6559     5
18.6684    14
 18.681    10
18.6935     7
 18.706     9
18.7185     5
 18.731    12
18.7435     4
 18.756     9
18.7685    12
 18.781     5
18.7935     2
 18.806    12
18.8185    11
 18.831     8
18.8435     5
18.8561     9
18.8686     6
18.8811     9
18.8936     8
18.9061    13
18.9186     8
18.9311     6
18.9436     7
18.9561     9
18.9686    10
18.9811    11
18.9936    12
19.0061     6
19.0186    11
19.0312    12
19.0437    10
19.0562     5
19.0687     7
19.0812     6
19.0937     7
19.1062     7
19.1187    13
19.1312    13
19.1437    12
19.1562     8
19.1687    11
19.1812     6
19.1937     7
19.2063     8
19.2188    13
19.2313     6
19.2438     9
19.2563     4
19.2688    11
19.2813    11
19.2938     9
19.3063     9
19.3188     8
19.3313     6
19.3438     5
19.3563     6
19.3689    11
19.3814     7
19.3939    11
19.4064     7
19.4189    10
19.4314    13
19.4439    12
19.4564     9
19.4689     8
19.4814     6
19.4939     6
19.5064    11
19.5189    11
19.5314     5
 19.544     6
19.5565     3
 19.569     6
19.5815     9
 19.594     5
19.6065    10
 19.619     6
19.6315     4
 19.644     5
19.6565     5
 19.669    10
19.6815     8
 19.694     9
19.7065    12
19.7191    10
19.7316     6
19.7441     3
19.7566    16
19.7691    21
19.7816     5
19.7941     7
19.8066    12
19.8191     9
19.8316     6
19.8441     2
19.8566    12
19.8691     8
19.8816    12
19.8942     6
19.9067    14
19.9192     4
19.9317    10
19.9442     7
19.9567     4
19.9692     9
19.9817     7
19.9942    12
20.0067     9
20.0192     4
20.0317     8
20.0442     5
20.0568     8
20.0693     8
20.0818     8
20.0943     9
20.1068    10
20.1193    10
20.1318    15
20.1443     4
20.1568     7
20.1693     9
20.1818    10
20.1943     7
20.2068     4
20.2193     8
20.2319     9
20.2444     9
20.2569     7
20.2694    14
20.2819    14
20.2944     6
20.3069    10
20.3194     4
20.3319     3
20.3444     4
20.3569     5
20.3694     6
20.3819     4
20.3944     6
 20.407     5
20.4195     6
 20.432    10
20.4445     4
 20.457     5
20.4695    10
 20.482     5
20.4945     6
 20.507     8
20.5195     3
 20.532     8
20.5445     9
 20.557    10
20.5695     3
20.5821    13
20.5946    11
20.6071     5
20.6196     7
20.6321     4
20.6446     7
20.6571     2
20.6696     3
20.6821     6
20.6946     8
20.7071     9
20.7196     5
20.7321     7
20.7447     7
20.7572     3
20.7697     6
20.7822    10
20.7947     4
20.8072     7
20.8197     6
20.8322     2
20.8447     5
20.8572    12
20.8697     7
20.8822    13
20.8947     6
20.9072     9
20.9198     6
20.9323     8
20.9448    11
20.9573     5
20.9698     8
20.9823    13
20.9948    16
21.0073     7
21.0198    10
21.0323    10
21.0448     4
21.0573     6
21.0698     4
21.0823     8
21.0949     8
21.1074     6
21.1199     6
21.1324     6
21.1449     4
21.1574     5
21.1699     5
21.1824     5
21.1949    11
21.2074     5
21.2199     6
21.2324     7
21.2449     6
21.2574     8
  21.27     5
21.2825     8
 21.295    11
21.3075     5
  21.32     6
21.3325     9
 21.345     4
21.3575     6
  21.37     4
21.3825     8
 21.395     1
21.4075     6
  21.42     5
21.4326     4
21.4451     5
21.4576     6
21.4701     6
21.4826     6
21.4951     8
21.5076     9
21.5201     5
21.5326    10
21.5451    10
21.5576     6
21.5701     8
21.5826     7
21.5951     9
21.6077     5
21.6202     4
21.6327     8
21.6452     4
21.6577     6
21.6702     7
21.6827     7
21.6952     8
21.7077     7
21.7202     6
21.7327     9
21.7452     7
21.7577     8
21.7702     7
21.7828     8
21.7953     6
21.8078    11
21.8203    11
21.8328     9
21.8453     8
21.8578     8
21.8703    10
21.8828     9
21.8953     5
21.9078     8
21.9203    12
21.9328    10
21.9453     8
21.9579     7
21.9704     6
21.9829     2
21.9954     4
22.0079     6
22.0204     8
22.0329    10
22.0454    12
22.0579     9
22.0704     8
22.0829    12
22.0954    14
22.1079    13
22.1205    10
 22.133     8
22.1455    11
 22.158     6
22.1705    10
 22.183    11
22.1955     7
 22.208     8
22.2205     9
 22.233     6
22.2455     6
 22.258     8
22.2705     8
 22.283    10
22.2956     6
22.3081     4
22.3206     9
22.3331     3
22.3456     8
22.3581     9
22.3706     8
22.3831     5
22.3956     6
22.4081     9
22.4206     8
22.4331     8
22.4456     8
22.4581     4
22.4707     4
22.4832     8
22.4957     5
22.5082     6
22.5207     5
22.5332     8
22.5457     6
22.5582     5
22.5707     7
22.5832    12
22.5957     5
22.6082    12
22.6207    12
22.6332     4
22.6458     3
22.6583     5
22.6708    10
22.6833     3
22.6958     2
22.7083     4
22.7208     1
22.7333     9
22.7458     7
22.7583     6
22.7708     5
22.7833     4
22.7958     6
22.8084    11
22.8209    11
22.8334     5
22.8459     4
22.8584     1
22.8709    10
22.8834     0
22.8959     8
22.9084     9
22.9209     8
22.9334     6
22.9459    11
22.9584     9
22.9709     7
22.9835     4
 22.996     4
23.0085     4
 23.021     3
23.0335     7
 23.046    11
23.0585     5
 23.071     7
23.0835    11
 23.096     5
23.1085     3
 23.121     5
23.1335     6
 23.146     7
23.1586     3
23.1711     3
23.1836     1
23.1961     5
23.2086     9
23.2211     2
23.2336     2
23.2461     4
23.2586     3
23.2711     4
23.2836     3
23.2961     5
23.3086     3
23.3211     2
23.3337     6
23.3462     4
23.3587     3
23.3712     4
23.3837     5
23.3962     9
23.4087     5
23.4212     4
23.4337     3
23.4462     7
23.4587     9
23.4712     5
23.4837     9
23.4963     7
23.5088     6
23.5213    10
23.5338     9
23.5463     6
23.5588     7
23.5713     7
23.5838     1
23.5963     8
23.6088     3
23.6213     9
23.6338     9
23.6463    10
23.6588     5
23.6714     1
23.6839     5
23.6964     6
23.7089     3
23.7214     3
23.7339     8
23.7464     4
23.7589     5
23.7714     5
23.7839     5
23.7964     3
23.8089     7
23.8214     7
23.8339     1
23.8465     2
 23.859     7
23.8715     4
 23.884     4
23.8965     4
 23.909     6
23.9215     6
 23.934     4
23.9465     4
 23.959     8
23.9715     5
 23.984     9
23.9965     3
 24.009     3
24.0216     6
24.0341     4
24.0466     7
24.0591     1
24.0716     1
24.0841     4
24.0966     2
24.1091     5
24.1216    10
24.1341     3
24.1466     5
24.1591     4
24.1716     4
24.1842     2
24.1967     4
24.2092     3
24.2217     3
24.2342     3
24.2467     5
24.2592     3
24.2717    11
24.2842     5
24.2967     2
24.3092     9
24.3217     4
24.3342     6
24.3467     8
24.3593     6
24.3718     4
24.3843     3
24.3968     7
24.4093     5
24.4218     4
24.4343     5
24.4468     4
24.4593    10
24.4718     7
24.4843     6
24.4968     6
24.5093     3
24.5218     2
24.5344     3
24.5469     2
24.5594     6
24.5719     5
24.5844     7
24.5969     3
24.6094     7
24.6219     5
24.6344     4
24.6469     4
24.6594     6
24.6719     2
24.6844     3
24.6969     4
24.7095     4
 24.722     4
24.7345     5
 24.747     8
24.7595     4
 24.772     4
24.7845     6
 24.797     3
24.8095     7
 24.822     7
24.8345     9
 24.847     7
24.8595     1
24.8721     6
24.8846     5
24.8971     3
24.9096     2
24.9221     5
24.9346     1
24.9471     6
24.9596     4
24.9721     0
24.9846     4
24.9971     5
25.0096     3
25.0221     3
25.0346     3
25.0472     4
25.0597     1
25.0722     7
25.0847     4
25.0972     2
25.1097     4
25.1222     5
25.1347     4
25.1472     4
25.1597     5
25.1722     7
25.1847     6
25.1972     2
25.2097     8
25.2223     7
25.2348     3
25.2473     3
25.2598     7
25.2723     4
25.2848     5
25.2973     6
25.3098     6
25.3223     7
25.3348     5
25.3473     3
25.3598     9
25.3723     9
25.3848     2
25.3974     1
25.4099     2
25.4224     3
25.4349     1
25.4474     4
25.4599     3
25.4724     5
25.4849     4
25.4974     0
25.5099     8
25.5224     5
25.5349     7
25.5474     6
  25.56     2
25.5725     1
 25.585     3
25.5975     1
  25.61     5
25.6225     5
 25.635     4
25.6475     5
  25.66     5
25.6725     5
 25.685     5
25.6975     3
  25.71     1
25.7225     6
25.7351     2
25.7476     1
25.7601     5
25.7726     5
25.7851     1
25.7976     3
25.8101     4
25.8226     3
25.8351     2
25.8476     2
25.8601     3
25.8726     5
25.8851     4
25.8976     4
25.9102     5
25.9227     4
25.9352     7
25.9477     9
25.9602     0
25.9727     3
25.9852     4
25.9977     7
26.0102     3
26.0227     5
26.0352     9
26.0477     8
26.0602     1
26.0727     3
26.0853     9
26.0978     3
26.1103     7
26.1228     3
26.1353     1
26.1478     2
26.1603     6
26.1728     5
26.1853     3
26.1978     3
26.2103     3
26.2228     1
26.2353     4
26.2479     1
26.2604     4
26.2729     6
26.2854     7
26.2979     3
26.3104     5
26.3229     3
26.3354     8
26.3479     3
26.3604     2
26.3729     3
26.3854     4
26.3979     6
26.4104     6
 26.423     1
26.4355     4
 26.448     5
26.4605     7
 26.473     4
26.4855     3
 26.498     5
26.5105     3
 26.523     3
26.5355     5
 26.548     2
26.5605     2
 26.573     5
26.5855     3
26.5981     5
26.6106     3
26.6231     1
26.6356     6
26.6481     2
26.6606     4
26.6731     4
26.6856     4
26.6981     4
26.7106     4
26.7231     5
26.7356     6
26.7481     3
26.7606     2
26.7732     1
26.7857     2
26.7982     3
26.8107     6
26.8232     4
26.8357     3
26.8482     4
26.8607     0
26.8732     1
26.8857     3
26.8982     3
26.9107     3
26.9232     2
26.9358     8
26.9483     0
26.9608     8
26.9733     2
26.9858     3
26.9983     3
27.0108     1
27.0233     4
27.0358     2
27.0483     2
27.0608     1
27.0733     6
27.0858     5
27.0983     3
27.1109     0
27.1234     3
27.1359     0
27.1484     3
27.1609     0
27.1734     4
27.1859     0
27.1984     0
27.2109     5
27.2234     4
27.2359     3
27.2484     3
27.2609     2
27.2734     5
 27.286     2
27.2985     2
 27.311     2
27.3235     2
 27.336     1
27.3485     3
 27.361     2
27.3735     2
 27.386     2
27.3985     3
 27.411     2
27.4235     3
 27.436     4
27.4485     6
27.4611     1
27.4736     3
27.4861     2
27.4986     2
27.5111     0
27.5236     1
27.5361     7
27.5486     5
27.5611     3
27.5736     6
27.5861     4
27.5986     0
27.6111     3
27.6237     3
27.6362     5
27.6487     1
27.6612     7
27.6737     4
27.6862     4
27.6987     3
27.7112     0
27.7237     5
27.7362     1
27.7487     2
27.7612     3
27.7737     5
27.7862     1
27.7988     0
27.8113     3
27.8238     0
27.8363     0
27.8488     1
27.8613     2
27.8738     2
27.8863     2
27.8988     3
27.9113     2
27.9238     2
27.9363     1
27.9488     6
27.9613     3
27.9739     1
27.9864     4
27.9989     1
28.0114     2
28.0239     3
28.0364     2
28.0489     4
28.0614     6
28.0739     5
28.0864     2
28.0989     5
28.1114     2
28.1239     1
28.1364     4
 28.149     2
28.1615     4
 28.174     2
28.1865     3
 28.199     4
28.2115     6
 28.224     5
28.2365     2
 28.249     2
28.2615     2
 28.274     2
28.2865     1
 28.299     2
28.3116     2
28.3241     2
28.3366     0
28.3491     0
28.3616     3
28.3741     3
28.3866     4
28.3991     3
28.4116     4
28.4241     0
28.4366     2
28.4491     2
28.4616     3
28.4741     0
28.4867     3
28.4992     3
28.5117     5
28.5242     1
28.5367     0
28.5492     0
28.5617     2
28.5742     4
28.5867     0
28.5992     2
28.6117     2
28.6242     2
28.6367     1
28.6492     3
28.6618     2
28.6743     5
28.6868     3
28.6993     3
28.7118     2
28.7243     5
28.7368     1
28.7493     4
28.7618     3
28.7743     3
28.7868     0
28.7993     2
28.8118     1
28.8243     5
28.8369     1
28.8494     2
28.8619     6
28.8744     0
28.8869     1
28.8994     2
28.9119     2
28.9244     3
28.9369     4
28.9494     5
28.9619     1
28.9744     2
28.9869     2
28.9995     7
 29.012     3
29.0245     3
 29.037     2
29.0495     0
 29.062     0
29.0745     5
 29.087     3
29.0995     4
 29.112     2
29.1245     3
 29.137     3
29.1495     2
 29.162     5
29.1746     3
29.1871     4
29.1996     3
29.2121     1
29.2246     5
29.2371     5
29.2496     2
29.2621     2
29.2746     5
29.2871     4
29.2996     0
29.3121     1
29.3246     1
29.3371     3
29.3497     1
29.3622     0
29.3747     2
29.3872     5
29.3997     2
29.4122     2
29.4247     2
29.4372     0
29.4497     0
29.4622     3
29.4747     0
29.4872     0
29.4997     3
29.5123     4
29.5248     4
29.5373     3
29.5498     2
29.5623     1
29.5748     4
29.5873     1
29.5998     2
29.6123     1
29.6248     5
29.6373     1
29.6498     3
29.6623     4
29.6748     2
29.6874     2
29.6999     1
29.7124     5
29.7249     2
29.7374     2
29.7499     1
29.7624     2
29.7749     5
29.7874     1
29.7999     1
29.8124     1
29.8249     0
29.8374     1
29.8499     4
29.8625     2
 29.875     1
29.8875     1
   29.9     1
29.9125     3
 29.925     1
29.9375     3
  29.95     1
29.9625     1
 29.975     1
29.9875     2
     30     1
30.0125     1
 30.025     3
30.0376     0
30.0501     2
30.0626     1
30.0751     3
30.0876     2
30.1001     2
30.1126     0
30.1251     1
30.1376     3
30.1501     0
30.1626     5
30.1751     4
30.1876     2
30.2002     1
30.2127     1
30.2252     2
30.2377     1
30.2502     1
30.2627     3
30.2752     0
30.2877     0
30.3002     0
30.3127     3
30.3252     3
30.3377     1
30.3502     1
30.3627     5
30.3753     0
30.3878     0
30.4003     1
30.4128     2
30.4253     2
30.4378     2
30.4503     4
30.4628     3
30.4753     3
30.4878     1
30.5003     3
30.5128     1
30.5253     2
30.5378     1
30.5504     1
30.5629     2
30.5754     3
30.5879     2
30.6004     1
30.6129     2
30.6254     0
30.6379     0
30.6504     3
30.6629     1
30.6754     1
30.6879     1
30.7004     3
30.7129     7
30.7255     0
 30.738     1
30.7505     2
 30.763     1
30.7755     1
 30.788     2
30.8005     1
 30.813     1
30.8255     1
 30.838     2
30.8505     1
 30.863     1
30.8755     1
30.8881     4
30.9006     0
30.9131     2
30.9256     0
30.9381     2
30.9506     1
30.9631     1
30.9756     2
30.9881     2
31.0006     1
31.0131     0
31.0256     1
31.0381     3
31.0506     1
31.0632     0
31.0757     2
31.0882     1
31.1007     1
31.1132     0
31.1257     2
31.1382     2
31.1507     2
31.1632     0
31.1757     1
31.1882     1
31.2007     1
31.2132     2
31.2257     2
31.2383     1
31.2508     3
31.2633     2
31.2758     1
31.2883     1
31.3008     0
31.3133     1
31.3258     1
31.3383     3
31.3508     1
31.3633     0
31.3758     1
31.3883     2
31.4008     2
31.4134     0
31.4259     1
31.4384     0
31.4509     2
31.4634     1
31.4759     0
31.4884     0
31.5009     1
31.5134     1
31.5259     0
31.5384     1
31.5509     2
31.5634     0
 31.576     0
31.5885     1
 31.601     1
31.6135     0
 31.626     3
31.6385     0
 31.651     7
31.6635     0
 31.676     0
31.6885     2
 31.701     2
31.7135     1
 31.726     1
31.7385     2
31.7511     3
31.7636     0
31.7761     1
31.7886     0
31.8011     0
31.8136     2
31.8261     2
31.8386     1
31.8511     1
31.8636     1
31.8761     3
31.8886     2
31.9011     0
31.9136     1
31.9262     3
31.9387     2
31.9512     2
31.9637     1
31.9762     1
31.9887     3
32.0012     1
32.0137     2
32.0262     1
32.0387     1
32.0512     0
32.0637     4
32.0762     2
32.0887     2
32.1013     3
32.1138     0
32.1263     3
32.1388     1
32.1513     2
32.1638     1
32.1763     1
32.1888     1
32.2013     2
32.2138     1
32.2263     1
32.2388     2
32.2513     1
32.2639     1
32.2764     1
32.2889     1
32.3014     2
32.3139     3
32.3264     1
32.3389     1
32.3514     1
32.3639     1
32.3764     0
32.3889     0
32.4014     0
32.4139     1
32.4264     1
 32.439     0
32.4515     0
 32.464     1
32.4765     0
 32.489     3
32.5015     0
 32.514     2
32.5265     0
 32.539     0
32.5515     0
 32.564     0
32.5765     0
 32.589     2
32.6015     1
32.6141     1
32.6266     1
32.6391     2
32.6516     2
32.6641     0
32.6766     0
32.6891     3
32.7016     0
32.7141     0
32.7266     1
32.7391     0
32.7516     2
32.7641     1
32.7766     0
32.7892     1
32.8017     0
32.8142     0
32.8267     1
32.8392     0
32.8517     1
32.8642     0
32.8767     2
32.8892     0
32.9017     1
32.9142     1
32.9267     1
32.9392     1
32.9518     0
32.9643     0
32.9768     2
32.9893     1
33.0018     1
33.0143     1
33.0268     0
33.0393     1
33.0518     2
33.0643     0
33.0768     4
33.0893     1
33.1018     0
33.1143     1
33.1269     0
33.1394     0
33.1519     1
33.1644     2
33.1769     1
33.1894     3
33.2019     1
33.2144     1
33.2269     0
33.2394     1
33.2519     1
33.2644     2
33.2769     2
33.2894     1
 33.302     0
33.3145     2
 33.327     1
33.3395     0
 33.352     2
33.3645     2
 33.377     0
33.3895     0
 33.402     2
33.4145     0
 33.427     1
33.4395     1
 33.452     0
33.4645     0
33.4771     1
33.4896     0
33.5021     0
33.5146     1
33.5271     4
33.5396     1
33.5521     0
33.5646     2
33.5771     1
33.5896     2
33.6021     3
33.6146     3
33.6271     0
33.6397     0
33.6522     2
33.6647     1
33.6772     0
33.6897     0
33.7022     3
33.7147     0
33.7272     1
33.7397     0
33.7522     0
33.7647     2
33.7772     2
33.7897     0
33.8022     1
33.8148     1
33.8273     2
33.8398     2
33.8523     1
33.8648     1
33.8773     0
33.8898     1
33.9023     1
33.9148     1
33.9273     2
33.9398     0
33.9523     0
33.9648     2
33.9773     1
33.9899     1
34.0024     1
34.0149     0
34.0274     2
34.0399     0
34.0524     1
34.0649     0
34.0774     1
34.0899     1
34.1024     1
34.1149     0
34.1274     0
34.1399     1
34.1524     1
 34.165     0
34.1775     0
  34.19     1
34.2025     2
 34.215     1
34.2275     1
  34.24     0
34.2525     0
 34.265     1
34.2775     0
  34.29     0
34.3025     0
 34.315     2
34.3276     2
34.3401     0
34.3526     0
34.3651     1
34.3776     2
34.3901     1
34.4026     1
34.4151     0
34.4276     1
34.4401     1
34.4526     1
34.4651     1
34.4776     1
34.4901     2
34.5027     0
34.5152     2
34.5277     1
34.5402     2
34.5527     0
34.5652     3
34.5777     1
34.5902     2
34.6027     0
34.6152     0
34.6277     1
34.6402     0
34.6527     0
34.6652     4
34.6778     2
34.6903     1
34.7028     2
34.7153     0
34.7278     2
34.7403     0
34.7528     1
34.7653     0
34.7778     1
34.7903     0
34.8028     0
34.8153     1
34.8278     0
34.8403     3
34.8529     0
34.8654     1
34.8779     1
34.8904     1
34.9029     2
34.9154     0
34.9279     2
34.9404     0
34.9529     0
34.9654     1
34.9779     2
34.9904     1
35.0029     1
35.0155     1
 35.028     2
35.0405     0
 35.053     0
35.0655     0
 35.078     1
35.0905     1
 35.103     2
35.1155     0
 35.128     0
35.1405     2
 35.153     1
35.1655     2
 35.178     0
35.1906     0
35.2031     2
35.2156     1
35.2281     1
35.2406     1
35.2531     0
35.2656     1
35.2781     2
35.2906     2
35.3031     0
35.3156     2
35.3281     0
35.3406     0
35.3531     2
35.3657     0
35.3782     1
35.3907     0
35.4032     1
35.4157     0
35.4282     3
35.4407     2
35.4532     4
35.4657     1
35.4782     1
35.4907     0
35.5032     3
35.5157     1
35.5282     0
35.5408     0
35.5533     0
35.5658     0
35.5783     2
35.5908     1
35.6033     1
35.6158     0
35.6283     0
35.6408     1
35.6533     0
35.6658     3
35.6783     2
35.6908     1
35.7034     1
35.7159     3
35.7284     1
35.7409     1
35.7534     0
35.7659     1
35.7784     1
35.7909     0
35.8034     0
35.8159     1
35.8284     0
35.8409     1
35.8534     1
35.8659     0
35.8785     0
 35.891     1
35.9035     0
 35.916     0
35.9285     2
 35.941     1
35.9535     0
 35.966     1
35.9785     1
 35.991     3
36.0035     0
 36.016     0
36.0285     1
 36.041     0
36.0536     0
36.0661     0
36.0786     1
36.0911     0
36.1036     0
36.1161     0
36.1286     3
36.1411     0
36.1536     0
36.1661     1
36.1786     2
36.1911     0
36.2036     0
36.2161     0
36.2287     0
36.2412     2
36.2537     0
36.2662     0
36.2787     0
36.2912     0
36.3037     0
36.3162     3
36.3287     0
36.3412     0
36.3537     0
36.3662     0
36.3787     1
36.3913     2
36.4038     0
36.4163     0
36.4288     1
36.4413     0
36.4538     0
36.4663     0
36.4788     0
36.4913     1
36.5038     0
36.5163     0
36.5288     0
36.5413     1
36.5538     0
36.5664     0
36.5789     0
36.5914     1
36.6039     0
36.6164     1
36.6289     0
36.6414     0
36.6539     1
36.6664     0
36.6789     2
36.6914     2
36.7039     0
36.7164     2
36.7289     0
36.7415     0
 36.754     2
36.7665     0
 36.779     0
36.7915     1
 36.804     0
36.8165     1
 36.829     1
36.8415     0
 36.854     1
36.8665     0
 36.879     1
36.8915     0
 36.904     0
36.9166     1
36.9291     1
36.9416     1
36.9541     2
36.9666     1
36.9791     1
36.9916     0
37.0041     0
37.0166     0
37.0291     0
37.0416     0
37.0541     1
37.0666     0
37.0792     3
37.0917     0
37.1042     0
37.1167     0
37.1292     1
37.1417     0
37.1542     0
37.1667     1
37.1792     2
37.1917     1
37.2042     2
37.2167     2
37.2292     0
37.2417     0
37.2543     0
37.2668     0
37.2793     1
37.2918     0
37.3043     1
37.3168     1
37.3293     0
37.3418     1
37.3543     0
37.3668     0
37.3793     0
37.3918     0
37.4043     0
37.4168     0
37.4294     1
37.4419     0
37.4544     1
37.4669     0
37.4794     0
37.4919     2
37.5044     0
37.5169     0
37.5294     0
37.5419     0
37.5544     1
37.5669     0
37.5794     1
37.5919     0
37.6045     0
 37.617     1
37.6295     0
 37.642     0
37.6545     0
 37.667     0
37.6795     0
 37.692     0
37.7045     0
 37.717     1
37.7295     1
 37.742     0
37.7545     1
37.7671     0
37.7796     1
37.7921     1
37.8046     2
37.8171     0
37.8296     0
37.8421     1
37.8546     0
37.8671     1
37.8796     0
37.8921     0
37.9046     0
37.9171     0
37.9296     1
37.9422     0
37.9547     1
37.9672     0
37.9797     0
37.9922     0
38.0047     0
38.0172     1
38.0297     0
38.0422     1
38.0547     0
38.0672     0
38.0797     0
38.0922     0
38.1047     0
38.1173     0
38.1298     0
38.1423     0
38.1548     0
38.1673     0
38.1798     0
38.1923     0
38.2048     0
38.2173     0
38.2298     1
38.2423     2
38.2548     1
38.2673     0
38.2798     0
38.2924     0
38.3049     0
38.3174     0
38.3299     0
38.3424     1
38.3549     0
38.3674     0
38.3799     0
38.3924     0
38.4049     1
38.4174     1
38.4299     1
38.4424     0
 38.455     0
38.4675     0
  38.48     0
38.4925     0
 38.505     0
38.5175     0
  38.53     0
38.5425     0
 38.555     1
38.5675     0
  38.58     0
38.5925     1
 38.605     1
38.6175     0
38.6301     1
38.6426     0
38.6551     0
38.6676     0
38.6801     0
38.6926     0
38.7051     0
38.7176     0
38.7301     0
38.7426     1
38.7551     0
38.7676     0
38.7801     0
38.7926     0
38.8052     0
38.8177     1
38.8302     0
38.8427     1
38.8552     0
38.8677     0
38.8802     0
38.8927     0
38.9052     0
38.9177     0
38.9302     0
38.9427     0
38.9552     1
38.9677     1
38.9803     0
38.9928     1
39.0053     0
39.0178     0
39.0303     0
39.0428     1
39.0553     1
39.0678     0
39.0803     0
39.0928     1
39.1053     0
39.1178     0
39.1303     0
39.1429     0
39.1554     1
39.1679     1
39.1804     0
39.1929     0
39.2054     1
39.2179     1
39.2304     0
39.2429     1
39.2554     0
39.2679     0
39.2804     0
39.2929     0
39.3054     1
 39.318     0
39.3305     0
 39.343     0
39.3555     0
 39.368     1
39.3805     0
 39.393     0
39.4055     0
 39.418     0
39.4305     0
 39.443     1
39.4555     0
 39.468     0
39.4805     1
39.4931     1
39.5056     0
39.5181     0
39.5306     0
39.5431     1
39.5556     0
39.5681     0
39.5806     0
39.5931     0
39.6056     0
39.6181     0
39.6306     0
39.6431     0
39.6556     0
39.6682     0
39.6807     0
39.6932     0
39.7057     1
39.7182     0
39.7307     1
39.7432     0
39.7557     0
39.7682     0
39.7807     0
39.7932     1
39.8057     1
39.8182     0
39.8308     0
39.8433     0
39.8558     0
39.8683     0
39.8808     0
39.8933     0
39.9058     0
39.9183     0
39.9308     0
39.9433     0
39.9558     1
39.9683     1
39.9808     0
39.9933     0
40.0059     2
40.0184     0
40.0309     0
40.0434     0
40.0559     1
40.0684     0
40.0809     0
40.0934     0
40.1059     1
40.1184     0
40.1309     0
40.1434     1
40.1559     0
40.1684     0
 40.181     0
40.1935     0
 40.206     1
40.2185     0
 40.231     0
40.2435     0
 40.256     1
40.2685     2
 40.281     0
40.2935     0
 40.306     0
40.3185     0
 40.331     0
40.3435     0
40.3561     0
40.3686     1
40.3811     1
40.3936     0
40.4061     0
40.4186     0
40.4311     0
40.4436     0
40.4561     0
40.4686     0
40.4811     2
40.4936     0
40.5061     0
40.5187     0
40.5312     0
40.5437     0
40.5562     1
40.5687     0
40.5812     0
40.5937     0
40.6062     0
40.6187     1
40.6312     0
40.6437     0
40.6562     0
40.6687     0
40.6812     0
40.6938     0
40.7063     0
40.7188     0
40.7313     0
40.7438     0
40.7563     0
40.7688     1
40.7813     0
40.7938     1
40.8063     0
40.8188     0
40.8313     0
40.8438     0
40.8563     0
40.8689     0
40.8814     1
40.8939     0
40.9064     0
40.9189     0
40.9314     0
40.9439     0
40.9564     1
40.9689     0
40.9814     0
40.9939     1
41.0064     1
41.0189     0
41.0314     0
 41.044     0
41.0565     0
 41.069     0
41.0815     0
 41.094     0
41.1065     0
 41.119     0
41.1315     0
 41.144     0
41.1565     0
 41.169     0
41.1815     0
 41.194     1
41.2066     1
41.2191     0
41.2316     0
41.2441     1
41.2566     0
41.2691     0
41.2816     0
41.2941     1
41.3066     2
41.3191     0
41.3316     0
41.3441     0
41.3566     0
41.3691     0
41.3817     1
41.3942     0
41.4067     0
41.4192     0
41.4317     0
41.4442     0
41.4567     0
41.4692     0
41.4817     0
41.4942     0
41.5067     0
41.5192     0
41.5317     0
41.5442     0
41.5568     0
41.5693     0
41.5818     0
41.5943     0
41.6068     0
41.6193     0
41.6318     0
41.6443     0
41.6568     0
41.6693     1
41.6818     0
41.6943     0
41.7068     0
41.7193     0
41.7319     0
41.7444     0
41.7569     0
41.7694     0
41.7819     0
41.7944     0
41.8069     0
41.8194     0
41.8319     1
41.8444     0
41.8569     0
41.8694     0
41.8819     0
41.8945     0
 41.907     0
41.9195     0
 41.932     0
41.9445     0
 41.957     0
41.9695     0
 41.982     0
41.9945     0
 42.007     0
42.0195     0
 42.032     0
42.0445     0
 42.057     0
42.0696     0
42.0821     0
42.0946     1
42.1071     0
42.1196     0
42.1321     0
42.1446     0
42.1571     0
42.1696     0
42.1821     0
42.1946     0
42.2071     0
42.2196     0
42.2321     0
42.2447     0
42.2572     0
42.2697     0
42.2822     0
42.2947     0
42.3072     1
42.3197     0
42.3322     0
42.3447     0
42.3572     0
42.3697     0
42.3822     0
42.3947     0
42.4072     0
42.4198     0
42.4323     0
42.4448     0
42.4573     0
42.4698     0
42.4823     0
42.4948     0
42.5073     0
42.5198     0
42.5323     0
42.5448     0
42.5573     0
42.5698     0
42.5824     0
42.5949     0
42.6074     0
42.6199     0
42.6324     0
42.6449     0
42.6574     1
42.6699     0
42.6824     0
42.6949     0
42.7074     0
42.7199     0
42.7324     0
42.7449     0
42.7575     0
  42.77     0
42.7825     0
 42.795     0
42.8075     0
  42.82     0
42.8325     0
 42.845     0
42.8575     0
  42.87     0
42.8825     0
 42.895     0
42.9075     0
  42.92     0
42.9326     0
42.9451     0
42.9576     0
42.9701     0
42.9826     0
42.9951     0
43.0076     0
43.0201     0
43.0326     0
43.0451     0
43.0576     0
43.0701     0
43.0826     0
43.0951     0
43.1077     0
43.1202     0
43.1327     0
43.1452     0
43.1577     0
43.1702     0
43.1827     0
43.1952     0
43.2077     0
43.2202     0
43.2327     0
43.2452     0
43.2577     0
43.2703     0
43.2828     0
43.2953     0
43.3078     0
43.3203     0
43.3328     0
43.3453     0
43.3578     0
43.3703     0
43.3828     1
43.3953     0
43.4078     0
43.4203     0
43.4328     0
43.4454     0
43.4579     0
43.4704     0
43.4829     0
43.4954     0
43.5079     0
43.5204     0
43.5329     0
43.5454     0
43.5579     0
43.5704     0
43.5829     0
43.5954     0
43.6079     0
43.6205     0
 43.633     0
43.6455     0
 43.658     0
43.6705     0
 43.683     0
43.6955     0
 43.708     0
43.7205     0
 43.733     0
43.7455     0
 43.758     0
43.7705     0
 43.783     0
43.7956     0
43.8081     0
43.8206     0
43.8331     0
43.8456     0
43.8581     0
43.8706     0
43.8831     0
43.8956     0
43.9081     0
43.9206     1
43.9331     0
43.9456     0
43.9582     0
43.9707     0
43.9832     0
43.9957     0
44.0082     0
44.0207     0
44.0332     0
44.0457     0
44.0582     0
44.0707     0
44.0832     0
44.0957     0
44.1082     0
44.1207     0
44.1333     0
44.1458     0
44.1583     0
44.1708     0
44.1833     0
44.1958     0
44.2083     0
44.2208     0
44.2333     0
44.2458     0
44.2583     0
44.2708     0
44.2833     0
44.2958     0
44.3084     0
44.3209     0
44.3334     0
44.3459     0
44.3584     0
44.3709     0
44.3834     0
44.3959     0
44.4084     0
44.4209     0
44.4334     0
44.4459     0
44.4584     0
44.4709     0
44.4835     0
 44.496     0
44.5085     0
 44.521     0
44.5335     0
 44.546     0
44.5585     0
 44.571     0
44.5835     0
 44.596     0
44.6085     0
 44.621     0
44.6335     0
44.6461     0
44.6586     0
44.6711     0
44.6836     0
44.6961     0
44.7086     0
44.7211     0
44.7336     0
44.7461     0
44.7586     0
44.7711     0
44.7836     0
44.7961     0
44.8086     0
44.8212     0
44.8337     0
44.8462     0
44.8587     0
44.8712     0
44.8837     0
44.8962     0
44.9087     0
44.9212     0
44.9337     0
44.9462     0
44.9587     0
44.9712     0
44.9837     0
44.9963     0
45.0088     0
45.0213     0
45.0338     0
45.0463     0
45.0588     0
45.0713     0
45.0838     0
45.0963     0
45.1088     0
45.1213     0
45.1338     0
45.1463     0
45.1588     0
45.1714     0
45.1839     0
45.1964     0
45.2089     0
45.2214     0
45.2339     0
45.2464     0
45.2589     0
45.2714     0
45.2839     0
45.2964     0
45.3089     1
45.3214     0
 45.334     0
45.3465     0
 45.359     0
45.3715     0
 45.384     0
45.3965     0
 45.409     0
45.4215     0
 45.434     0
45.4465     0
 45.459     0
45.4715     0
 45.484     0
45.4965     0
45.5091     0
45.5216     0
45.5341     0
45.5466     0
45.5591     0
45.5716     0
45.5841     0
45.5966     0
45.6091     0
45.6216     0
45.6341     0
45.6466     0
45.6591     0
45.6716     0
45.6842     0
45.6967     0
45.7092     0
45.7217     0
45.7342     0
45.7467     0
45.7592     0
45.7717     0
45.7842     0
45.7967     0
45.8092     0
45.8217     0
45.8342     0
45.8467     0
45.8593     0
45.8718     0
45.8843     0
45.8968     0
45.9093     0
45.9218     0
45.9343     0
45.9468     0
45.9593     0
45.9718     0
45.9843     0
45.9968     0
46.0093     0
46.0219     0
46.0344     0
46.0469     0
46.0594     0
46.0719     0
46.0844     0
46.0969     0
46.1094     0
46.1219     0
46.1344     0
46.1469     0
46.1594     0
46.1719     0
46.1844     0
 46.197     0
46.2095     0
 46.222     0
46.2345     0
 46.247     0
46.2595     0
 46.272     0
46.2845     0
 46.297     1
46.3095     0
 46.322     0
46.3345     0
 46.347     0
46.3595     0
46.3721     0
46.3846     0
46.3971     0
46.4096     0
46.4221     0
46.4346     0
46.4471     0
46.4596     0
46.4721     0
46.4846     0
46.4971     0
46.5096     0
46.5221     0
46.5346     0
46.5472     0
46.5597     0
46.5722     0
46.5847     0
46.5972     0
46.6097     0
46.6222     0
46.6347     0
46.6472     0
46.6597     0
46.6722     0
46.6847     0
46.6972     0
46.7098     0
46.7223     0
46.7348     0
46.7473     0
46.7598     0
46.7723     0
46.7848     0
46.7973     0
46.8098     0
46.8223     0
46.8348     0
46.8473     0
46.8598     0
46.8723     0
46.8849     0
46.8974     0
46.9099     0
46.9224     0
46.9349     0
46.9474     0
46.9599     0
46.9724     0
46.9849     0
46.9974     0
47.0099     0
47.0224     0
47.0349     0
47.0474     0
  47.06     0
47.0725     0
 47.085     0
47.0975     0
  47.11     0
47.1225     0
 47.135     0
47.1475     0
  47.16     0
47.1725     0
 47.185     0
47.1975     0
  47.21     0
47.2225     0
47.2351     0
47.2476     0
47.2601     0
47.2726     0
47.2851     0
47.2976     0
47.3101     0
47.3226     0
47.3351     0
47.3476     0
47.3601     0
47.3726     0
47.3851     0
47.3977     0
47.4102     0
47.4227     0
47.4352     0
47.4477     0
47.4602     0
47.4727     0
47.4852     0
47.4977     0
47.5102     0
47.5227     0
47.5352     0
47.5477     0
47.5602     0
47.5728     0
47.5853     0
47.5978     0
47.6103     0
47.6228     0
47.6353     0
47.6478     0
47.6603     0
47.6728     0
47.6853     0
47.6978     0
47.7103     0
47.7228     0
47.7353     0
47.7479     0
47.7604     0
47.7729     0
47.7854     0
47.7979     0
47.8104     0
47.8229     0
47.8354     0
47.8479     0
47.8604     0
47.8729     0
47.8854     0
47.8979     0
47.9104     0
 47.923     0
47.9355     0
 47.948     0
47.9605     0
 47.973     0
47.9855     0
 47.998     0
48.0105     0
 48.023     0
48.0355     0
 48.048     0
48.0605     0
 48.073     0
48.0856     0
48.0981     0
48.1106     0
48.1231     0
48.1356     0
48.1481     0
48.1606     0
48.1731     0
48.1856     0
48.1981     0
48.2106     0
48.2231     0
48.2356     0
48.2481     0
48.2607     0
48.2732     0
48.2857     0
48.2982     0
48.3107     0
48.3232     0
48.3357     0
48.3482     0
48.3607     0
48.3732     0
48.3857     0
48.3982     0
48.4107     0
48.4232     0
48.4358     0
48.4483     0
48.4608     0
48.4733     0
48.4858     0
48.4983     0
48.5108     0
48.5233     0
48.5358     0
48.5483     0
48.5608     0
48.5733     0
48.5858     0
48.5983     0
48.6109     0
48.6234     0
48.6359     0
48.6484     0
48.6609     0
48.6734     0
48.6859     0
48.6984     0
48.7109     0
48.7234     0
48.7359     0
48.7484     0
48.7609     0
48.7735     0
 48.786     0
48.7985     0
 48.811     0
48.8235     0
 48.836     0
48.8485     0
 48.861     0
48.8735     0
 48.886     0
48.8985     0
 48.911     0
48.9235     0
 48.936     0
48.9486     0
48.9611     0
48.9736     0
48.9861     0
48.9986     0
49.0111     0
49.0236     0
49.0361     0
49.0486     0
49.0611     0
49.0736     0
49.0861     0
49.0986     0
49.1111     0
49.1237     0
49.1362     0
49.1487     0
49.1612     0
49.1737     0
49.1862     0
49.1987     0
49.2112     0
49.2237     0
49.2362     0
49.2487     0
49.2612     0
49.2737     0
49.2862     0
49.2988     0
49.3113     0
49.3238     0
49.3363     0
49.3488     0
49.3613     0
49.3738     0
49.3863     0
49.3988     0
49.4113     0
49.4238     0
49.4363     0
49.4488     0
49.4614     0
49.4739     0
49.4864     0
49.4989     0
49.5114     0
49.5239     0
49.5364     0
49.5489     0
49.5614     0
49.5739     0
49.5864     0
49.5989     0
49.6114     0
49.6239     0
49.6365     0
 49.649     0
49.6615     0
 49.674     0
49.6865     0
 49.699     0
49.7115     0
 49.724     0
49.7365     0
 49.749     0
49.7615     0
 49.774     0
49.7865     0
 49.799     0
49.8116     0
49.8241     0
49.8366     0
49.8491     0
49.8616     0
49.8741     0
49.8866     0
49.8991     0
49.9116     0
49.9241     0
49.9366     0
49.9491     0
49.9616     0
49.9741     0
49.9867     0
49.9992     0
50.0117     0
50.0242     0
