RÖNTEC GmbH Berlin, Germany
Quantax 1.2

Date: 3/3/2015 12:39:55 PM
Real time: 60957
Life time: 60003
Pulse density: 6747


Detector type: XFLASH 3001
Window type: 
Detector thickness: 0.45
Si dead layer:0

Calibration, lin.: 12.507
Calibration, abs.: -1193.107
Mn FWHM: 142.37
Fano factor: 0.105
Channels: 4096

Energy Counts
-1.1931     0
-1.1806     0
-1.1681     0
-1.1556     0
-1.1431     0
-1.1306     0
-1.1181     0
-1.1056     0
 -1.093     0
-1.0805     0
 -1.068     0
-1.0555     0
 -1.043     0
-1.0305     0
 -1.018     0
-1.0055     0
 -0.993     0
-0.9805     0
 -0.968     0
-0.9555     0
 -0.943     0
-0.9305     0
-0.9179     0
-0.9054     0
-0.8929     0
-0.8804     0
-0.8679     0
-0.8554     0
-0.8429     0
-0.8304     0
-0.8179     0
-0.8054     0
-0.7929     0
-0.7804     0
-0.7679     0
-0.7554     0
-0.7428     0
-0.7303     0
-0.7178     0
-0.7053     0
-0.6928     0
-0.6803     0
-0.6678     0
-0.6553     0
-0.6428     0
-0.6303     0
-0.6178     0
-0.6053     0
-0.5928     0
-0.5803     0
-0.5677     0
-0.5552     0
-0.5427     0
-0.5302     0
-0.5177     0
-0.5052     0
-0.4927     0
-0.4802     0
-0.4677     0
-0.4552     0
-0.4427     0
-0.4302     0
-0.4177     0
-0.4051     0
-0.3926     0
-0.3801     0
-0.3676     0
-0.3551     0
-0.3426     0
-0.3301     0
-0.3176     0
-0.3051     0
-0.2926     0
-0.2801     0
-0.2676     0
-0.2551     0
-0.2426     0
  -0.23     0
-0.2175     0
 -0.205     0
-0.1925     0
  -0.18     1
-0.1675     0
 -0.155     2
-0.1425     6
  -0.13    18
-0.1175    76
 -0.105   270
-0.0925   906
  -0.08  2457
-0.0675  6177
-0.0549 13639
-0.0424 25564
-0.0299 42874
-0.0174 61646
-0.0049 78844
 0.0076 87114
 0.0201 84684
 0.0326 72192
 0.0451 52716
 0.0576 33844
 0.0701 19604
 0.0826  9688
 0.0951  4206
 0.1076  1574
 0.1202   504
 0.1327   143
 0.1452    50
 0.1577    12
 0.1702     1
 0.1827     3
 0.1952     1
 0.2077     2
 0.2202     1
 0.2327     1
 0.2452     1
 0.2577     1
 0.2702     1
 0.2828     1
 0.2953     0
 0.3078     0
 0.3203     0
 0.3328     0
 0.3453     0
 0.3578     0
 0.3703     0
 0.3828     0
 0.3953     0
 0.4078     0
 0.4203     0
 0.4328     6
 0.4453    24
 0.4579    30
 0.4704    45
 0.4829    48
 0.4954    49
 0.5079    41
 0.5204    43
 0.5329    50
 0.5454    43
 0.5579    36
 0.5704    41
 0.5829    27
 0.5954    45
 0.6079    61
 0.6204    57
  0.633    45
 0.6455    45
  0.658    44
 0.6705    41
  0.683    40
 0.6955    42
  0.708    36
 0.7205    41
  0.733    34
 0.7455    42
  0.758    32
 0.7705    31
  0.783    28
 0.7955    29
 0.8081    26
 0.8206    34
 0.8331    33
 0.8456    29
 0.8581    26
 0.8706    28
 0.8831    28
 0.8956    30
 0.9081    24
 0.9206    25
 0.9331    20
 0.9456    21
 0.9581    19
 0.9707    26
 0.9832    17
 0.9957    13
 1.0082    22
 1.0207    21
 1.0332    23
 1.0457    16
 1.0582    23
 1.0707    24
 1.0832    18
 1.0957    25
 1.1082    19
 1.1207    19
 1.1332    16
 1.1458    24
 1.1583    24
 1.1708    18
 1.1833    16
 1.1958    20
 1.2083    15
 1.2208    31
 1.2333    26
 1.2458    30
 1.2583    19
 1.2708    24
 1.2833    20
 1.2958    25
 1.3083    21
 1.3209    25
 1.3334    21
 1.3459    26
 1.3584    24
 1.3709    26
 1.3834    23
 1.3959    18
 1.4084    18
 1.4209    29
 1.4334    17
 1.4459    20
 1.4584    30
 1.4709    26
 1.4834    21
  1.496    16
 1.5085    22
  1.521    18
 1.5335    17
  1.546    15
 1.5585    18
  1.571    18
 1.5835    20
  1.596    19
 1.6085    21
  1.621    21
 1.6335    15
  1.646    10
 1.6586    20
 1.6711    21
 1.6836    31
 1.6961    35
 1.7086    27
 1.7211    39
 1.7336    42
 1.7461    41
 1.7586    40
 1.7711    44
 1.7836    41
 1.7961    31
 1.8086    40
 1.8211    35
 1.8337    41
 1.8462    29
 1.8587    20
 1.8712    32
 1.8837    26
 1.8962    25
 1.9087    30
 1.9212    25
 1.9337    28
 1.9462    27
 1.9587    23
 1.9712    21
 1.9837    23
 1.9962    22
 2.0088    18
 2.0213    30
 2.0338    29
 2.0463    18
 2.0588    23
 2.0713    30
 2.0838    18
 2.0963    26
 2.1088    24
 2.1213    22
 2.1338    28
 2.1463    28
 2.1588    42
 2.1713    29
 2.1839    27
 2.1964    32
 2.2089    27
 2.2214    39
 2.2339    40
 2.2464    55
 2.2589    60
 2.2714    90
 2.2839   131
 2.2964   178
 2.3089   192
 2.3214   262
 2.3339   317
 2.3465   327
  2.359   433
 2.3715   420
  2.384   401
 2.3965   372
  2.409   434
 2.4215   374
  2.434   408
 2.4465   361
  2.459   320
 2.4715   293
  2.484   283
 2.4965   223
  2.509   192
 2.5216   143
 2.5341   116
 2.5466    95
 2.5591    61
 2.5716    72
 2.5841    50
 2.5966    54
 2.6091    49
 2.6216    61
 2.6341    63
 2.6466    62
 2.6591    60
 2.6716    63
 2.6841    54
 2.6967    55
 2.7092    44
 2.7217    36
 2.7342    24
 2.7467    35
 2.7592    26
 2.7717    23
 2.7842    19
 2.7967    22
 2.8092    21
 2.8217    20
 2.8342    21
 2.8467    24
 2.8592    16
 2.8718    17
 2.8843    23
 2.8968    32
 2.9093    40
 2.9218    45
 2.9343    35
 2.9468    42
 2.9593    49
 2.9718    36
 2.9843    42
 2.9968    40
 3.0093    44
 3.0218    43
 3.0344    29
 3.0469    43
 3.0594    46
 3.0719    26
 3.0844    36
 3.0969    36
 3.1094    37
 3.1219    44
 3.1344    27
 3.1469    38
 3.1594    34
 3.1719    41
 3.1844    35
 3.1969    46
 3.2095    41
  3.222    49
 3.2345    69
  3.247    72
 3.2595   109
  3.272   113
 3.2845   152
  3.297   176
 3.3095   190
  3.322   186
 3.3345   192
  3.347   194
 3.3595   171
  3.372   147
 3.3846   124
 3.3971    88
 3.4096    57
 3.4221    43
 3.4346    31
 3.4471    21
 3.4596    20
 3.4721    22
 3.4846    11
 3.4971    20
 3.5096    28
 3.5221    32
 3.5346    47
 3.5471    40
 3.5597    55
 3.5722    69
 3.5847    77
 3.5972    84
 3.6097   146
 3.6222   171
 3.6347   228
 3.6472   281
 3.6597   305
 3.6722   407
 3.6847   430
 3.6972   374
 3.7097   399
 3.7223   385
 3.7348   342
 3.7473   291
 3.7598   254
 3.7723   195
 3.7848   133
 3.7973    89
 3.8098    56
 3.8223    57
 3.8348    43
 3.8473    39
 3.8598    26
 3.8723    28
 3.8848    22
 3.8974    27
 3.9099    20
 3.9224    26
 3.9349    29
 3.9474    36
 3.9599    42
 3.9724    49
 3.9849    51
 3.9974    53
 4.0099    75
 4.0224    74
 4.0349    76
 4.0474    66
 4.0599    64
 4.0725    67
  4.085    48
 4.0975    43
   4.11    31
 4.1225    35
  4.135    23
 4.1475    26
   4.16    16
 4.1725    19
  4.185    12
 4.1975    13
   4.21    24
 4.2225    18
  4.235    15
 4.2476    17
 4.2601    18
 4.2726    23
 4.2851    18
 4.2976    20
 4.3101    16
 4.3226    23
 4.3351    21
 4.3476    24
 4.3601    21
 4.3726    19
 4.3851    32
 4.3976    24
 4.4102    32
 4.4227    37
 4.4352    43
 4.4477    63
 4.4602    69
 4.4727    87
 4.4852    88
 4.4977    97
 4.5102    97
 4.5227   114
 4.5352    95
 4.5477   100
 4.5602    94
 4.5727    76
 4.5853    87
 4.5978    51
 4.6103    63
 4.6228    59
 4.6353    53
 4.6478    45
 4.6603    52
 4.6728    43
 4.6853    34
 4.6978    44
 4.7103    47
 4.7228    32
 4.7353    26
 4.7478    39
 4.7604    27
 4.7729    23
 4.7854    18
 4.7979    19
 4.8104    23
 4.8229    27
 4.8354    33
 4.8479    39
 4.8604    42
 4.8729    28
 4.8854    32
 4.8979    39
 4.9104    30
 4.9229    40
 4.9355    40
  4.948    30
 4.9605    30
  4.973    32
 4.9855    41
  4.998    36
 5.0105    29
  5.023    28
 5.0355    19
  5.048    30
 5.0605    20
  5.073    21
 5.0855    16
 5.0981    25
 5.1106    27
 5.1231    22
 5.1356    22
 5.1481    30
 5.1606    23
 5.1731    29
 5.1856    30
 5.1981    29
 5.2106    29
 5.2231    19
 5.2356    20
 5.2481    29
 5.2606    31
 5.2732    23
 5.2857    31
 5.2982    41
 5.3107    29
 5.3232    28
 5.3357    21
 5.3482    35
 5.3607    31
 5.3732    39
 5.3857    33
 5.3982    29
 5.4107    28
 5.4232    39
 5.4357    32
 5.4483    37
 5.4608    36
 5.4733    40
 5.4858    28
 5.4983    22
 5.5108    33
 5.5233    20
 5.5358    40
 5.5483    25
 5.5608    34
 5.5733    33
 5.5858    34
 5.5983    25
 5.6108    30
 5.6234    39
 5.6359    38
 5.6484    39
 5.6609    29
 5.6734    38
 5.6859    30
 5.6984    28
 5.7109    31
 5.7234    30
 5.7359    50
 5.7484    35
 5.7609    35
 5.7734    42
  5.786    43
 5.7985    45
  5.811    42
 5.8235    33
  5.836    36
 5.8485    46
  5.861    42
 5.8735    55
  5.886    35
 5.8985    42
  5.911    50
 5.9235    59
  5.936    46
 5.9485    45
 5.9611    39
 5.9736    44
 5.9861    57
 5.9986    51
 6.0111    38
 6.0236    41
 6.0361    53
 6.0486    58
 6.0611    47
 6.0736    51
 6.0861    45
 6.0986    56
 6.1111    49
 6.1236    63
 6.1362    72
 6.1487    81
 6.1612    65
 6.1737    86
 6.1862    97
 6.1987   101
 6.2112   142
 6.2237   186
 6.2362   273
 6.2487   433
 6.2612   586
 6.2737   888
 6.2862  1278
 6.2988  1782
 6.3113  2501
 6.3238  3115
 6.3363  3907
 6.3488  4861
 6.3613  5551
 6.3738  6413
 6.3863  6734
 6.3988  7011
 6.4113  7010
 6.4238  6756
 6.4363  6221
 6.4488  5506
 6.4613  4670
 6.4739  3724
 6.4864  3080
 6.4989  2331
 6.5114  1698
 6.5239  1190
 6.5364   849
 6.5489   543
 6.5614   361
 6.5739   234
 6.5864   143
 6.5989   102
 6.6114    93
 6.6239    53
 6.6364    52
  6.649    41
 6.6615    49
  6.674    46
 6.6865    38
  6.699    59
 6.7115    45
  6.724    48
 6.7365    33
  6.749    58
 6.7615    55
  6.774    48
 6.7865    67
  6.799    67
 6.8115    72
 6.8241    58
 6.8366    67
 6.8491    61
 6.8616    74
 6.8741    92
 6.8866   115
 6.8991   133
 6.9116   146
 6.9241   185
 6.9366   245
 6.9491   341
 6.9616   414
 6.9741   521
 6.9867   674
 6.9992   677
 7.0117   829
 7.0242   935
 7.0367  1040
 7.0492  1073
 7.0617  1020
 7.0742  1050
 7.0867  1068
 7.0992   953
 7.1117   807
 7.1242   634
 7.1367   528
 7.1492   437
 7.1618   382
 7.1743   274
 7.1868   179
 7.1993   142
 7.2118   119
 7.2243    95
 7.2368    56
 7.2493    55
 7.2618    65
 7.2743    50
 7.2868    47
 7.2993    47
 7.3118    60
 7.3243    61
 7.3369    81
 7.3494    64
 7.3619    69
 7.3744    67
 7.3869    58
 7.3994    76
 7.4119    64
 7.4244    71
 7.4369    73
 7.4494    71
 7.4619    80
 7.4744    58
 7.4869    63
 7.4994    57
  7.512    47
 7.5245    67
  7.537    46
 7.5495    44
  7.562    46
 7.5745    50
  7.587    58
 7.5995    44
  7.612    41
 7.6245    47
  7.637    34
 7.6495    38
  7.662    50
 7.6746    49
 7.6871    42
 7.6996    41
 7.7121    39
 7.7246    43
 7.7371    41
 7.7496    53
 7.7621    55
 7.7746    37
 7.7871    57
 7.7996    57
 7.8121    51
 7.8246    51
 7.8371    66
 7.8497    60
 7.8622    65
 7.8747    38
 7.8872    64
 7.8997    78
 7.9122    54
 7.9247    66
 7.9372    77
 7.9497    98
 7.9622    95
 7.9747   121
 7.9872   113
 7.9997   114
 8.0122   150
 8.0248   151
 8.0373   147
 8.0498   170
 8.0623   164
 8.0748   181
 8.0873   183
 8.0998   179
 8.1123   166
 8.1248   166
 8.1373   141
 8.1498   198
 8.1623   192
 8.1748   173
 8.1873   195
 8.1999   196
 8.2124   207
 8.2249   220
 8.2374   251
 8.2499   300
 8.2624   276
 8.2749   338
 8.2874   394
 8.2999   492
 8.3124   507
 8.3249   583
 8.3374   693
 8.3499   764
 8.3625   827
  8.375   885
 8.3875   813
    8.4   818
 8.4125   771
  8.425   755
 8.4375   694
   8.45   634
 8.4625   511
  8.475   475
 8.4875   384
    8.5   333
 8.5125   250
  8.525   184
 8.5376   152
 8.5501   140
 8.5626   103
 8.5751    98
 8.5876   106
 8.6001    67
 8.6126    76
 8.6251    87
 8.6376    68
 8.6501    84
 8.6626    80
 8.6751    77
 8.6876    85
 8.7001    67
 8.7127    66
 8.7252    75
 8.7377    78
 8.7502    91
 8.7627    87
 8.7752    75
 8.7877    78
 8.8002    67
 8.8127    64
 8.8252    81
 8.8377    68
 8.8502    80
 8.8627    70
 8.8752    68
 8.8878    89
 8.9003    74
 8.9128    53
 8.9253    71
 8.9378    85
 8.9503    80
 8.9628    90
 8.9753    83
 8.9878    75
 9.0003    81
 9.0128   121
 9.0253   118
 9.0378   122
 9.0504   146
 9.0629   164
 9.0754   181
 9.0879   250
 9.1004   243
 9.1129   303
 9.1254   320
 9.1379   357
 9.1504   380
 9.1629   408
 9.1754   427
 9.1879   402
 9.2004   440
 9.2129   401
 9.2255   396
  9.238   385
 9.2505   333
  9.263   314
 9.2755   297
  9.288   282
 9.3005   247
  9.313   235
 9.3255   216
  9.338   204
 9.3505   213
  9.363   227
 9.3755   208
  9.388   196
 9.4006   207
 9.4131   213
 9.4256   197
 9.4381   201
 9.4506   253
 9.4631   242
 9.4756   230
 9.4881   227
 9.5006   265
 9.5131   316
 9.5256   289
 9.5381   328
 9.5506   350
 9.5631   388
 9.5757   391
 9.5882   449
 9.6007   530
 9.6132   552
 9.6257   557
 9.6382   558
 9.6507   590
 9.6632   594
 9.6757   587
 9.6882   658
 9.7007   570
 9.7132   574
 9.7257   521
 9.7383   464
 9.7508   451
 9.7633   359
 9.7758   355
 9.7883   335
 9.8008   294
 9.8133   276
 9.8258   249
 9.8383   292
 9.8508   266
 9.8633   249
 9.8758   282
 9.8883   274
 9.9008   282
 9.9134   293
 9.9259   313
 9.9384   293
 9.9509   291
 9.9634   284
 9.9759   305
 9.9884   294
10.0009   280
10.0134   265
10.0259   240
10.0384   212
10.0509   194
10.0634   144
10.0759   131
10.0885   141
 10.101   134
10.1135   110
 10.126   102
10.1385    83
 10.151   100
10.1635    95
 10.176    97
10.1885    97
 10.201    79
10.2135    90
 10.226   110
10.2385    86
 10.251   116
10.2636   147
10.2761   146
10.2886   205
10.3011   223
10.3136   338
10.3261   328
10.3386   429
10.3511   580
10.3636   752
10.3761   971
10.3886  1180
10.4011  1524
10.4136  1885
10.4262  2271
10.4387  2775
10.4512  3275
10.4637  3726
10.4762  4148
10.4887  4698
10.5012  5031
10.5137  5491
10.5262  5703
10.5387  6003
10.5512  5857
10.5637  5639
10.5762  5344
10.5887  4909
10.6013  4338
10.6138  4007
10.6263  3420
10.6388  2764
10.6513  2364
10.6638  1845
10.6763  1494
10.6888  1107
10.7013   813
10.7138   609
10.7263   451
10.7388   359
10.7513   262
10.7638   190
10.7764   143
10.7889   117
10.8014    98
10.8139   109
10.8264    79
10.8389    71
10.8514    88
10.8639    74
10.8764    78
10.8889    51
10.9014    60
10.9139    76
10.9264    59
10.9389    60
10.9515    62
 10.964    76
10.9765    47
 10.989    59
11.0015    55
 11.014    46
11.0265    63
 11.039    59
11.0515    52
 11.064    56
11.0765    52
 11.089    44
11.1015    58
11.1141    54
11.1266    70
11.1391    65
11.1516    73
11.1641    75
11.1766    77
11.1891    73
11.2016    97
11.2141    96
11.2266   101
11.2391   149
11.2516   143
11.2641   149
11.2766   140
11.2892   186
11.3017   168
11.3142   183
11.3267   167
11.3392   175
11.3517   170
11.3642   149
11.3767   144
11.3892   139
11.4017   146
11.4142   114
11.4267   111
11.4392   116
11.4517    82
11.4643    79
11.4768    66
11.4893    67
11.5018    70
11.5143    76
11.5268    72
11.5393    73
11.5518    66
11.5643    74
11.5768    53
11.5893    70
11.6018    69
11.6143    60
11.6268    71
11.6394    60
11.6519    56
11.6644    49
11.6769    45
11.6894    67
11.7019    60
11.7144    48
11.7269    57
11.7394    54
11.7519    50
11.7644    42
11.7769    43
11.7894    46
 11.802    50
11.8145    48
 11.827    51
11.8395    32
 11.852    57
11.8645    53
 11.877    54
11.8895    49
 11.902    49
11.9145    43
 11.927    55
11.9395    67
 11.952    45
11.9645    44
11.9771    67
11.9896    53
12.0021    72
12.0146    81
12.0271    81
12.0396    96
12.0521   108
12.0646   105
12.0771   125
12.0896   135
12.1021   134
12.1146   163
12.1271   182
12.1396   171
12.1522   176
12.1647   188
12.1772   205
12.1897   215
12.2022   239
12.2147   265
12.2272   229
12.2397   291
12.2522   278
12.2647   289
12.2772   289
12.2897   295
12.3022   308
12.3147   288
12.3273   341
12.3398   301
12.3523   299
12.3648   333
12.3773   297
12.3898   302
12.4023   408
12.4148   484
12.4273   621
12.4398   690
12.4523   857
12.4648  1085
12.4773  1384
12.4899  1598
12.5024  1863
12.5149  2235
12.5274  2683
12.5399  3042
12.5524  3363
12.5649  3559
12.5774  3791
12.5899  3940
12.6024  4120
12.6149  4058
12.6274  3918
12.6399  3675
12.6524  3580
 12.665  3238
12.6775  2822
  12.69  2525
12.7025  2196
 12.715  1913
12.7275  1597
  12.74  1369
12.7525  1140
 12.765   979
12.7775   789
  12.79   648
12.8025   562
 12.815   481
12.8275   423
12.8401   351
12.8526   325
12.8651   315
12.8776   235
12.8901   253
12.9026   223
12.9151   214
12.9276   214
12.9401   191
12.9526   195
12.9651   196
12.9776   161
12.9901   176
13.0026   184
13.0152   148
13.0277   163
13.0402   162
13.0527   153
13.0652   147
13.0777   149
13.0902   108
13.1027   102
13.1152    96
13.1277    91
13.1402    85
13.1527    63
13.1652    60
13.1778    50
13.1903    46
13.2028    33
13.2153    45
13.2278    46
13.2403    34
13.2528    39
13.2653    30
13.2778    41
13.2903    40
13.3028    57
13.3153    44
13.3278    40
13.3403    32
13.3529    30
13.3654    36
13.3779    35
13.3904    40
13.4029    33
13.4154    23
13.4279    31
13.4404    22
13.4529    20
13.4654    24
13.4779    33
13.4904    20
13.5029    27
13.5154    19
 13.528    22
13.5405    17
 13.553    18
13.5655    15
 13.578    22
13.5905    11
 13.603    15
13.6155    15
 13.628    21
13.6405    16
 13.653    18
13.6655    20
 13.678    15
13.6905    25
13.7031    21
13.7156    24
13.7281    19
13.7406    19
13.7531    16
13.7656    15
13.7781    21
13.7906    25
13.8031    14
13.8156    16
13.8281    22
13.8406    22
13.8531    19
13.8657    18
13.8782    16
13.8907    16
13.9032    18
13.9157    17
13.9282    26
13.9407    22
13.9532    19
13.9657    18
13.9782    21
13.9907    13
14.0032    19
14.0157    14
14.0282    16
14.0408    14
14.0533    29
14.0658    25
14.0783    19
14.0908    22
14.1033    23
14.1158    32
14.1283    20
14.1408    29
14.1533    33
14.1658    25
14.1783    30
14.1908    30
14.2033    29
14.2159    27
14.2284    34
14.2409    40
14.2534    31
14.2659    42
14.2784    30
14.2909    29
14.3034    33
14.3159    31
14.3284    32
14.3409    34
14.3534    31
14.3659    35
14.3784    29
 14.391    25
14.4035    33
 14.416    27
14.4285    33
 14.441    24
14.4535    27
 14.466    30
14.4785    26
 14.491    29
14.5035    34
 14.516    24
14.5285    32
 14.541    63
14.5536    78
14.5661    88
14.5786    87
14.5911   120
14.6036   147
14.6161   172
14.6286   200
14.6411   230
14.6536   282
14.6661   302
14.6786   355
14.6911   410
14.7036   391
14.7161   436
14.7287   501
14.7412   462
14.7537   478
14.7662   472
14.7787   395
14.7912   387
14.8037   410
14.8162   318
14.8287   301
14.8412   274
14.8537   229
14.8662   203
14.8787   166
14.8912   155
14.9038   114
14.9163   105
14.9288    96
14.9413    68
14.9538    89
14.9663    70
14.9788    64
14.9913    73
15.0038    86
15.0163    82
15.0288   103
15.0413   106
15.0538    94
15.0663   118
15.0789   133
15.0914   122
15.1039   144
15.1164   145
15.1289   159
15.1414   133
15.1539   152
15.1664   159
15.1789   147
15.1914   121
15.2039   135
15.2164   121
15.2289    89
15.2415    92
 15.254    99
15.2665    91
 15.279    84
15.2915    54
 15.304    58
15.3165    61
 15.329    41
15.3415    35
 15.354    36
15.3665    26
 15.379    30
15.3915    22
 15.404    14
15.4166    20
15.4291    18
15.4416    22
15.4541    20
15.4666    20
15.4791    16
15.4916    17
15.5041    17
15.5166    20
15.5291    19
15.5416    16
15.5541    20
15.5666    23
15.5791    12
15.5917    21
15.6042    29
15.6167    29
15.6292    35
15.6417    39
15.6542    35
15.6667    27
15.6792    46
15.6917    40
15.7042    43
15.7167    34
15.7292    42
15.7417    45
15.7542    40
15.7668    41
15.7793    48
15.7918    43
15.8043    40
15.8168    37
15.8293    37
15.8418    32
15.8543    24
15.8668    27
15.8793    34
15.8918    22
15.9043    21
15.9168    16
15.9294    14
15.9419    14
15.9544    22
15.9669    21
15.9794    15
15.9919    11
16.0044    16
16.0169     6
16.0294     8
16.0419     5
16.0544    14
16.0669     8
16.0794    13
16.0919    13
16.1045    17
 16.117    12
16.1295    14
 16.142    16
16.1545     9
 16.167    11
16.1795    13
 16.192    10
16.2045     9
 16.217     6
16.2295     8
 16.242    16
16.2545    15
 16.267    13
16.2796    13
16.2921    15
16.3046     7
16.3171    12
16.3296    10
16.3421    17
16.3546    22
16.3671    10
16.3796    10
16.3921    12
16.4046     7
16.4171     9
16.4296    10
16.4421    16
16.4547     9
16.4672    16
16.4797    11
16.4922    10
16.5047     8
16.5172    12
16.5297     9
16.5422     7
16.5547    11
16.5672    13
16.5797     7
16.5922     9
16.6047     8
16.6173    16
16.6298    16
16.6423     5
16.6548    10
16.6673    13
16.6798    10
16.6923    15
16.7048    12
16.7173    22
16.7298    12
16.7423    10
16.7548    15
16.7673    10
16.7798    12
16.7924     9
16.8049    15
16.8174    12
16.8299    13
16.8424    15
16.8549    19
16.8674    11
16.8799    13
16.8924    23
16.9049    17
16.9174     6
16.9299    12
16.9424    12
16.9549    14
16.9675    10
  16.98    18
16.9925     9
 17.005    19
17.0175    10
  17.03    10
17.0425    17
 17.055    14
17.0675    14
  17.08     7
17.0925    12
 17.105    12
17.1175     9
  17.13    13
17.1426    12
17.1551    12
17.1676    12
17.1801    11
17.1926    14
17.2051     7
17.2176    13
17.2301    12
17.2426    13
17.2551    13
17.2676    10
17.2801    11
17.2926    11
17.3052    11
17.3177    10
17.3302     9
17.3427     8
17.3552    14
17.3677     8
17.3802    13
17.3927    14
17.4052    12
17.4177    16
17.4302    12
17.4427    15
17.4552     8
17.4677    15
17.4803    13
17.4928    10
17.5053    13
17.5178    14
17.5303    15
17.5428     8
17.5553    10
17.5678    12
17.5803    11
17.5928     7
17.6053    10
17.6178     8
17.6303     9
17.6428    18
17.6554    20
17.6679    13
17.6804    17
17.6929    16
17.7054     6
17.7179    18
17.7304    16
17.7429    18
17.7554    16
17.7679    12
17.7804    12
17.7929    16
17.8054    12
17.8179     7
17.8305    13
 17.843    10
17.8555    11
 17.868    10
17.8805    15
 17.893    20
17.9055    17
 17.918     7
17.9305     7
 17.943    13
17.9555    14
 17.968    11
17.9805     7
17.9931    19
18.0056    14
18.0181    11
18.0306     6
18.0431    14
18.0556     7
18.0681    12
18.0806    18
18.0931    15
18.1056     7
18.1181    13
18.1306     5
18.1431     8
18.1556     7
18.1682    16
18.1807    16
18.1932     9
18.2057     5
18.2182    11
18.2307    10
18.2432     7
18.2557     9
18.2682    12
18.2807    10
18.2932     5
18.3057    10
18.3182     7
18.3307     7
18.3433    12
18.3558    15
18.3683    12
18.3808    13
18.3933    15
18.4058    14
18.4183    10
18.4308    18
18.4433    12
18.4558     6
18.4683     9
18.4808     8
18.4933     7
18.5058    13
18.5184     8
18.5309    17
18.5434     9
18.5559     8
18.5684    12
18.5809    12
18.5934     9
18.6059     9
18.6184    12
18.6309    10
18.6434     8
18.6559     9
18.6684     9
 18.681     4
18.6935     7
 18.706    18
18.7185     7
 18.731     7
18.7435    14
 18.756    11
18.7685     8
 18.781    17
18.7935    11
 18.806    11
18.8185    14
 18.831     7
18.8435     8
18.8561    11
18.8686     8
18.8811    19
18.8936     7
18.9061    19
18.9186    14
18.9311    12
18.9436    13
18.9561    10
18.9686    10
18.9811    11
18.9936    12
19.0061     6
19.0186    10
19.0312    13
19.0437     4
19.0562     8
19.0687     8
19.0812    12
19.0937    12
19.1062    13
19.1187     8
19.1312     9
19.1437    10
19.1562    11
19.1687     6
19.1812    12
19.1937    10
19.2063     8
19.2188     9
19.2313     5
19.2438     9
19.2563     8
19.2688    10
19.2813     7
19.2938    11
19.3063    13
19.3188    15
19.3313     2
19.3438     8
19.3563     7
19.3689    13
19.3814     8
19.3939     6
19.4064     7
19.4189    12
19.4314    10
19.4439    12
19.4564    15
19.4689    10
19.4814     5
19.4939     8
19.5064     7
19.5189    11
19.5314     7
 19.544     5
19.5565     7
 19.569     7
19.5815    13
 19.594    16
19.6065     9
 19.619     8
19.6315    14
 19.644    13
19.6565     8
 19.669    13
19.6815     6
 19.694     5
19.7065     9
19.7191     7
19.7316     9
19.7441    11
19.7566     6
19.7691    16
19.7816     3
19.7941     7
19.8066     8
19.8191     6
19.8316    12
19.8441    10
19.8566     7
19.8691     6
19.8816     8
19.8942     7
19.9067    11
19.9192     9
19.9317    10
19.9442     5
19.9567     7
19.9692    15
19.9817     9
19.9942     9
20.0067     7
20.0192     6
20.0317    14
20.0442     8
20.0568     4
20.0693     8
20.0818    14
20.0943    15
20.1068     9
20.1193     7
20.1318     6
20.1443     4
20.1568     6
20.1693     6
20.1818     6
20.1943     4
20.2068     4
20.2193     6
20.2319     5
20.2444    11
20.2569     6
20.2694     5
20.2819     5
20.2944    10
20.3069     5
20.3194    11
20.3319    13
20.3444    16
20.3569     9
20.3694    10
20.3819    10
20.3944     8
 20.407     8
20.4195     6
 20.432     4
20.4445     5
 20.457     6
20.4695     9
 20.482    12
20.4945    11
 20.507    10
20.5195     6
 20.532     9
20.5445     7
 20.557     5
20.5695     5
20.5821     6
20.5946    10
20.6071     9
20.6196     8
20.6321     8
20.6446    13
20.6571     7
20.6696     9
20.6821     9
20.6946     7
20.7071    11
20.7196     6
20.7321     8
20.7447     5
20.7572     3
20.7697     6
20.7822     4
20.7947     8
20.8072     3
20.8197     6
20.8322    10
20.8447    14
20.8572    11
20.8697     6
20.8822     5
20.8947     9
20.9072    11
20.9198     9
20.9323     7
20.9448     6
20.9573     4
20.9698    12
20.9823     9
20.9948     8
21.0073     7
21.0198    10
21.0323     7
21.0448     5
21.0573     6
21.0698     3
21.0823     7
21.0949    11
21.1074    12
21.1199     8
21.1324     5
21.1449     5
21.1574     8
21.1699     6
21.1824    10
21.1949     4
21.2074     7
21.2199     9
21.2324     5
21.2449     8
21.2574    10
  21.27     6
21.2825     9
 21.295     5
21.3075     5
  21.32    12
21.3325     7
 21.345     5
21.3575     7
  21.37     6
21.3825     2
 21.395     9
21.4075     9
  21.42     8
21.4326    10
21.4451     7
21.4576    10
21.4701     6
21.4826    11
21.4951     6
21.5076     7
21.5201     8
21.5326    10
21.5451     5
21.5576     9
21.5701    11
21.5826     7
21.5951     4
21.6077     8
21.6202     8
21.6327     5
21.6452     6
21.6577    13
21.6702     9
21.6827     8
21.6952     7
21.7077     5
21.7202     8
21.7327     5
21.7452     8
21.7577     8
21.7702     4
21.7828     7
21.7953     7
21.8078    13
21.8203     5
21.8328     6
21.8453    10
21.8578    15
21.8703     5
21.8828    13
21.8953     7
21.9078     3
21.9203     7
21.9328     5
21.9453     5
21.9579    14
21.9704     6
21.9829     8
21.9954     7
22.0079     2
22.0204    10
22.0329     9
22.0454     3
22.0579     9
22.0704     9
22.0829     5
22.0954     8
22.1079     4
22.1205     5
 22.133     5
22.1455     9
 22.158     8
22.1705     7
 22.183     8
22.1955     6
 22.208     6
22.2205     3
 22.233     9
22.2455     6
 22.258     5
22.2705     7
 22.283    19
22.2956     7
22.3081     5
22.3206     7
22.3331     1
22.3456     8
22.3581     8
22.3706     8
22.3831     7
22.3956     9
22.4081     8
22.4206     7
22.4331     4
22.4456     7
22.4581     8
22.4707    10
22.4832     7
22.4957     6
22.5082     5
22.5207     6
22.5332     7
22.5457     5
22.5582     4
22.5707     7
22.5832     7
22.5957     5
22.6082    10
22.6207     6
22.6332     4
22.6458     7
22.6583     5
22.6708     7
22.6833     6
22.6958     5
22.7083     4
22.7208     6
22.7333    13
22.7458     9
22.7583     6
22.7708     2
22.7833     6
22.7958     9
22.8084     5
22.8209     2
22.8334     8
22.8459     6
22.8584     3
22.8709     5
22.8834     3
22.8959     3
22.9084     9
22.9209     8
22.9334     8
22.9459     7
22.9584     9
22.9709     8
22.9835     9
 22.996     8
23.0085     9
 23.021     5
23.0335    10
 23.046     7
23.0585     4
 23.071     2
23.0835    12
 23.096    11
23.1085     6
 23.121    10
23.1335    10
 23.146     6
23.1586     4
23.1711    11
23.1836    12
23.1961     2
23.2086     7
23.2211     7
23.2336     7
23.2461     5
23.2586     4
23.2711     9
23.2836     8
23.2961     8
23.3086     5
23.3211     3
23.3337     8
23.3462     6
23.3587     5
23.3712     2
23.3837    10
23.3962     5
23.4087     6
23.4212     3
23.4337     5
23.4462     2
23.4587     4
23.4712     7
23.4837     5
23.4963     3
23.5088     3
23.5213     7
23.5338     5
23.5463     2
23.5588     3
23.5713     6
23.5838     7
23.5963     4
23.6088     7
23.6213     3
23.6338     6
23.6463     7
23.6588     3
23.6714     3
23.6839     5
23.6964     3
23.7089    10
23.7214     2
23.7339     4
23.7464     5
23.7589     5
23.7714     7
23.7839     2
23.7964     4
23.8089     4
23.8214     4
23.8339     8
23.8465     4
 23.859     2
23.8715     8
 23.884     5
23.8965     4
 23.909     4
23.9215     3
 23.934     4
23.9465     4
 23.959     7
23.9715     5
 23.984     7
23.9965     3
 24.009     3
24.0216     6
24.0341     7
24.0466     8
24.0591     5
24.0716     7
24.0841     8
24.0966     9
24.1091     3
24.1216     4
24.1341     4
24.1466     4
24.1591     9
24.1716     2
24.1842     4
24.1967     4
24.2092     3
24.2217     6
24.2342     5
24.2467     4
24.2592     5
24.2717     6
24.2842     2
24.2967     3
24.3092     2
24.3217     2
24.3342     4
24.3467     5
24.3593     4
24.3718     7
24.3843     3
24.3968     5
24.4093     4
24.4218     9
24.4343     3
24.4468     6
24.4593     7
24.4718     5
24.4843     5
24.4968     5
24.5093     8
24.5218     1
24.5344     8
24.5469     3
24.5594     2
24.5719     7
24.5844     3
24.5969     7
24.6094     5
24.6219     4
24.6344     5
24.6469     5
24.6594     9
24.6719     4
24.6844     5
24.6969     3
24.7095     5
 24.722     8
24.7345     5
 24.747     5
24.7595     6
 24.772     3
24.7845     7
 24.797     5
24.8095     5
 24.822     3
24.8345     2
 24.847    10
24.8595     2
24.8721     4
24.8846     2
24.8971     1
24.9096     3
24.9221     3
24.9346     5
24.9471     6
24.9596     3
24.9721     6
24.9846     4
24.9971     1
25.0096     2
25.0221     5
25.0346     3
25.0472     1
25.0597     7
25.0722     5
25.0847     5
25.0972     4
25.1097     4
25.1222     3
25.1347     2
25.1472     3
25.1597     4
25.1722     4
25.1847     5
25.1972     7
25.2097     4
25.2223     4
25.2348     5
25.2473     5
25.2598     8
25.2723     5
25.2848     5
25.2973     6
25.3098     4
25.3223     7
25.3348     7
25.3473     2
25.3598     4
25.3723     5
25.3848     4
25.3974     5
25.4099     7
25.4224     5
25.4349     3
25.4474     5
25.4599     4
25.4724     4
25.4849     7
25.4974     6
25.5099     3
25.5224     3
25.5349     2
25.5474     2
  25.56     6
25.5725     3
 25.585     8
25.5975     3
  25.61     5
25.6225     5
 25.635     4
25.6475     1
  25.66     2
25.6725     1
 25.685     5
25.6975     4
  25.71     2
25.7225     2
25.7351     5
25.7476     4
25.7601     6
25.7726     2
25.7851     5
25.7976     5
25.8101     3
25.8226     7
25.8351     1
25.8476     4
25.8601     5
25.8726     2
25.8851     5
25.8976     3
25.9102     2
25.9227     3
25.9352     2
25.9477     2
25.9602     2
25.9727     7
25.9852     4
25.9977     6
26.0102     1
26.0227     6
26.0352     4
26.0477     3
26.0602     4
26.0727     6
26.0853     0
26.0978     2
26.1103     2
26.1228     5
26.1353     5
26.1478     1
26.1603     4
26.1728     3
26.1853     3
26.1978     3
26.2103     3
26.2228     3
26.2353     3
26.2479     8
26.2604     4
26.2729     3
26.2854     3
26.2979     5
26.3104     3
26.3229     6
26.3354     5
26.3479     2
26.3604     4
26.3729     1
26.3854     3
26.3979     3
26.4104     5
 26.423     5
26.4355     7
 26.448     4
26.4605     5
 26.473     3
26.4855     4
 26.498     2
26.5105     3
 26.523     4
26.5355     4
 26.548     2
26.5605     4
 26.573     4
26.5855     3
26.5981     2
26.6106     3
26.6231     2
26.6356     3
26.6481     2
26.6606     2
26.6731     4
26.6856     2
26.6981     4
26.7106     2
26.7231     1
26.7356     6
26.7481     5
26.7606     2
26.7732     2
26.7857     4
26.7982     3
26.8107     3
26.8232     4
26.8357     6
26.8482     0
26.8607     3
26.8732     2
26.8857     4
26.8982     4
26.9107     2
26.9232     5
26.9358     5
26.9483     2
26.9608     3
26.9733     3
26.9858     1
26.9983     0
27.0108     3
27.0233     5
27.0358     5
27.0483     2
27.0608     6
27.0733     7
27.0858     1
27.0983     4
27.1109     3
27.1234     4
27.1359     7
27.1484     4
27.1609     5
27.1734     2
27.1859     5
27.1984     2
27.2109     3
27.2234     3
27.2359     2
27.2484     5
27.2609     2
27.2734     3
 27.286     1
27.2985     1
 27.311    10
27.3235     1
 27.336     5
27.3485     7
 27.361     4
27.3735     2
 27.386     3
27.3985     4
 27.411     0
27.4235     2
 27.436     2
27.4485     4
27.4611     5
27.4736     2
27.4861     3
27.4986     4
27.5111     0
27.5236     1
27.5361     5
27.5486     3
27.5611     4
27.5736     3
27.5861     4
27.5986     5
27.6111     5
27.6237     0
27.6362     2
27.6487     2
27.6612     0
27.6737     0
27.6862     2
27.6987     6
27.7112     3
27.7237     4
27.7362     4
27.7487     7
27.7612     4
27.7737     3
27.7862     4
27.7988     3
27.8113     6
27.8238     2
27.8363     3
27.8488     0
27.8613     4
27.8738     2
27.8863     1
27.8988     4
27.9113     1
27.9238     4
27.9363     5
27.9488     1
27.9613     4
27.9739     2
27.9864     5
27.9989     4
28.0114     5
28.0239     4
28.0364     4
28.0489     2
28.0614     1
28.0739     3
28.0864     4
28.0989     5
28.1114     3
28.1239     3
28.1364     5
 28.149     2
28.1615     3
 28.174     5
28.1865     2
 28.199     6
28.2115     2
 28.224     2
28.2365     2
 28.249     4
28.2615     5
 28.274     4
28.2865     3
 28.299     4
28.3116     3
28.3241     3
28.3366     4
28.3491     5
28.3616     1
28.3741     3
28.3866     1
28.3991     0
28.4116     5
28.4241     2
28.4366     2
28.4491     2
28.4616     0
28.4741     4
28.4867     1
28.4992     4
28.5117     2
28.5242     5
28.5367     1
28.5492     2
28.5617     0
28.5742     1
28.5867     2
28.5992     3
28.6117     4
28.6242     2
28.6367     4
28.6492     1
28.6618     4
28.6743     1
28.6868     0
28.6993     2
28.7118     4
28.7243     3
28.7368     0
28.7493     3
28.7618     2
28.7743     4
28.7868     6
28.7993     3
28.8118     6
28.8243     1
28.8369     3
28.8494     4
28.8619     2
28.8744     1
28.8869     2
28.8994     2
28.9119     1
28.9244     0
28.9369     1
28.9494     2
28.9619     2
28.9744     1
28.9869     2
28.9995     4
 29.012     5
29.0245     2
 29.037     2
29.0495     1
 29.062     3
29.0745     4
 29.087     3
29.0995     4
 29.112     1
29.1245     1
 29.137     1
29.1495     1
 29.162     3
29.1746     0
29.1871     2
29.1996     0
29.2121     4
29.2246     3
29.2371     4
29.2496     1
29.2621     1
29.2746     2
29.2871     2
29.2996     3
29.3121     2
29.3246     3
29.3371     5
29.3497     1
29.3622     2
29.3747     2
29.3872     2
29.3997     0
29.4122     2
29.4247     3
29.4372     2
29.4497     2
29.4622     1
29.4747     1
29.4872     3
29.4997     0
29.5123     0
29.5248     3
29.5373     4
29.5498     1
29.5623     2
29.5748     3
29.5873     5
29.5998     2
29.6123     1
29.6248     4
29.6373     1
29.6498     3
29.6623     2
29.6748     0
29.6874     1
29.6999     5
29.7124     1
29.7249     0
29.7374     3
29.7499     2
29.7624     2
29.7749     2
29.7874     0
29.7999     3
29.8124     0
29.8249     2
29.8374     3
29.8499     0
29.8625     2
 29.875     1
29.8875     5
   29.9     0
29.9125     4
 29.925     1
29.9375     1
  29.95     1
29.9625     1
 29.975     4
29.9875     6
     30     1
30.0125     0
 30.025     1
30.0376     1
30.0501     0
30.0626     1
30.0751     4
30.0876     0
30.1001     3
30.1126     1
30.1251     2
30.1376     2
30.1501     1
30.1626     3
30.1751     1
30.1876     3
30.2002     2
30.2127     3
30.2252     4
30.2377     2
30.2502     0
30.2627     0
30.2752     3
30.2877     2
30.3002     4
30.3127     1
30.3252     0
30.3377     3
30.3502     2
30.3627     0
30.3753     1
30.3878     2
30.4003     2
30.4128     2
30.4253     1
30.4378     4
30.4503     3
30.4628     2
30.4753     1
30.4878     3
30.5003     3
30.5128     1
30.5253     3
30.5378     0
30.5504     2
30.5629     2
30.5754     0
30.5879     0
30.6004     5
30.6129     1
30.6254     4
30.6379     2
30.6504     1
30.6629     3
30.6754     2
30.6879     1
30.7004     3
30.7129     0
30.7255     1
 30.738     3
30.7505     2
 30.763     3
30.7755     1
 30.788     3
30.8005     1
 30.813     1
30.8255     1
 30.838     0
30.8505     0
 30.863     3
30.8755     2
30.8881     2
30.9006     2
30.9131     1
30.9256     3
30.9381     3
30.9506     0
30.9631     2
30.9756     0
30.9881     2
31.0006     2
31.0131     3
31.0256     1
31.0381     0
31.0506     4
31.0632     2
31.0757     2
31.0882     2
31.1007     3
31.1132     2
31.1257     1
31.1382     1
31.1507     0
31.1632     1
31.1757     1
31.1882     2
31.2007     1
31.2132     1
31.2257     2
31.2383     2
31.2508     3
31.2633     2
31.2758     3
31.2883     2
31.3008     1
31.3133     0
31.3258     1
31.3383     1
31.3508     1
31.3633     1
31.3758     0
31.3883     1
31.4008     4
31.4134     3
31.4259     0
31.4384     1
31.4509     3
31.4634     0
31.4759     0
31.4884     2
31.5009     1
31.5134     0
31.5259     0
31.5384     0
31.5509     2
31.5634     2
 31.576     1
31.5885     0
 31.601     2
31.6135     2
 31.626     3
31.6385     1
 31.651     2
31.6635     0
 31.676     2
31.6885     2
 31.701     5
31.7135     1
 31.726     0
31.7385     1
31.7511     1
31.7636     1
31.7761     2
31.7886     1
31.8011     2
31.8136     0
31.8261     2
31.8386     4
31.8511     2
31.8636     1
31.8761     1
31.8886     1
31.9011     1
31.9136     2
31.9262     1
31.9387     3
31.9512     1
31.9637     2
31.9762     2
31.9887     1
32.0012     2
32.0137     1
32.0262     0
32.0387     0
32.0512     3
32.0637     1
32.0762     1
32.0887     2
32.1013     1
32.1138     3
32.1263     2
32.1388     2
32.1513     1
32.1638     1
32.1763     1
32.1888     0
32.2013     2
32.2138     0
32.2263     0
32.2388     4
32.2513     0
32.2639     0
32.2764     1
32.2889     0
32.3014     0
32.3139     1
32.3264     5
32.3389     0
32.3514     2
32.3639     0
32.3764     1
32.3889     2
32.4014     0
32.4139     1
32.4264     1
 32.439     2
32.4515     0
 32.464     1
32.4765     1
 32.489     2
32.5015     3
 32.514     2
32.5265     2
 32.539     1
32.5515     2
 32.564     2
32.5765     2
 32.589     1
32.6015     2
32.6141     2
32.6266     1
32.6391     1
32.6516     1
32.6641     0
32.6766     1
32.6891     3
32.7016     0
32.7141     1
32.7266     1
32.7391     0
32.7516     4
32.7641     1
32.7766     0
32.7892     2
32.8017     1
32.8142     0
32.8267     0
32.8392     2
32.8517     0
32.8642     1
32.8767     0
32.8892     2
32.9017     3
32.9142     0
32.9267     0
32.9392     0
32.9518     2
32.9643     2
32.9768     2
32.9893     4
33.0018     0
33.0143     0
33.0268     2
33.0393     1
33.0518     1
33.0643     1
33.0768     0
33.0893     2
33.1018     2
33.1143     1
33.1269     3
33.1394     2
33.1519     0
33.1644     2
33.1769     1
33.1894     0
33.2019     2
33.2144     1
33.2269     2
33.2394     0
33.2519     2
33.2644     0
33.2769     3
33.2894     1
 33.302     2
33.3145     3
 33.327     1
33.3395     3
 33.352     2
33.3645     0
 33.377     2
33.3895     0
 33.402     0
33.4145     0
 33.427     2
33.4395     2
 33.452     0
33.4645     0
33.4771     4
33.4896     2
33.5021     0
33.5146     1
33.5271     1
33.5396     5
33.5521     0
33.5646     4
33.5771     3
33.5896     2
33.6021     0
33.6146     0
33.6271     1
33.6397     1
33.6522     0
33.6647     0
33.6772     1
33.6897     1
33.7022     0
33.7147     3
33.7272     0
33.7397     0
33.7522     2
33.7647     1
33.7772     1
33.7897     0
33.8022     0
33.8148     1
33.8273     0
33.8398     0
33.8523     2
33.8648     0
33.8773     1
33.8898     1
33.9023     0
33.9148     1
33.9273     0
33.9398     0
33.9523     2
33.9648     2
33.9773     0
33.9899     1
34.0024     0
34.0149     0
34.0274     1
34.0399     2
34.0524     1
34.0649     2
34.0774     2
34.0899     0
34.1024     1
34.1149     0
34.1274     1
34.1399     1
34.1524     0
 34.165     2
34.1775     0
  34.19     0
34.2025     0
 34.215     1
34.2275     0
  34.24     2
34.2525     0
 34.265     0
34.2775     0
  34.29     0
34.3025     1
 34.315     2
34.3276     0
34.3401     1
34.3526     3
34.3651     0
34.3776     2
34.3901     2
34.4026     0
34.4151     1
34.4276     0
34.4401     0
34.4526     0
34.4651     0
34.4776     1
34.4901     0
34.5027     1
34.5152     1
34.5277     1
34.5402     0
34.5527     0
34.5652     1
34.5777     2
34.5902     2
34.6027     0
34.6152     0
34.6277     0
34.6402     1
34.6527     1
34.6652     0
34.6778     2
34.6903     0
34.7028     0
34.7153     0
34.7278     0
34.7403     0
34.7528     2
34.7653     2
34.7778     1
34.7903     0
34.8028     0
34.8153     0
34.8278     1
34.8403     0
34.8529     2
34.8654     1
34.8779     0
34.8904     0
34.9029     0
34.9154     0
34.9279     1
34.9404     0
34.9529     2
34.9654     2
34.9779     0
34.9904     1
35.0029     1
35.0155     2
 35.028     1
35.0405     0
 35.053     1
35.0655     1
 35.078     0
35.0905     3
 35.103     1
35.1155     0
 35.128     1
35.1405     1
 35.153     0
35.1655     0
 35.178     1
35.1906     0
35.2031     0
35.2156     0
35.2281     0
35.2406     1
35.2531     1
35.2656     0
35.2781     0
35.2906     0
35.3031     0
35.3156     1
35.3281     0
35.3406     3
35.3531     1
35.3657     0
35.3782     1
35.3907     0
35.4032     1
35.4157     1
35.4282     1
35.4407     1
35.4532     0
35.4657     0
35.4782     0
35.4907     0
35.5032     1
35.5157     1
35.5282     0
35.5408     0
35.5533     0
35.5658     3
35.5783     1
35.5908     0
35.6033     1
35.6158     2
35.6283     0
35.6408     0
35.6533     1
35.6658     0
35.6783     0
35.6908     1
35.7034     1
35.7159     0
35.7284     0
35.7409     1
35.7534     1
35.7659     0
35.7784     1
35.7909     3
35.8034     0
35.8159     0
35.8284     0
35.8409     0
35.8534     0
35.8659     0
35.8785     0
 35.891     1
35.9035     0
 35.916     0
35.9285     0
 35.941     1
35.9535     1
 35.966     0
35.9785     0
 35.991     0
36.0035     1
 36.016     0
36.0285     1
 36.041     1
36.0536     0
36.0661     0
36.0786     2
36.0911     0
36.1036     0
36.1161     0
36.1286     1
36.1411     1
36.1536     1
36.1661     0
36.1786     0
36.1911     0
36.2036     1
36.2161     0
36.2287     0
36.2412     1
36.2537     1
36.2662     0
36.2787     0
36.2912     0
36.3037     1
36.3162     0
36.3287     0
36.3412     0
36.3537     0
36.3662     1
36.3787     1
36.3913     0
36.4038     1
36.4163     0
36.4288     2
36.4413     0
36.4538     0
36.4663     0
36.4788     0
36.4913     0
36.5038     0
36.5163     0
36.5288     1
36.5413     0
36.5538     0
36.5664     0
36.5789     2
36.5914     2
36.6039     2
36.6164     0
36.6289     0
36.6414     1
36.6539     2
36.6664     1
36.6789     0
36.6914     1
36.7039     1
36.7164     0
36.7289     0
36.7415     0
 36.754     0
36.7665     0
 36.779     0
36.7915     1
 36.804     1
36.8165     0
 36.829     1
36.8415     1
 36.854     0
36.8665     1
 36.879     0
36.8915     1
 36.904     1
36.9166     1
36.9291     0
36.9416     0
36.9541     1
36.9666     1
36.9791     2
36.9916     0
37.0041     0
37.0166     0
37.0291     1
37.0416     1
37.0541     0
37.0666     0
37.0792     0
37.0917     1
37.1042     0
37.1167     0
37.1292     0
37.1417     0
37.1542     0
37.1667     0
37.1792     1
37.1917     0
37.2042     1
37.2167     1
37.2292     0
37.2417     0
37.2543     2
37.2668     1
37.2793     0
37.2918     0
37.3043     2
37.3168     0
37.3293     0
37.3418     1
37.3543     1
37.3668     0
37.3793     0
37.3918     2
37.4043     0
37.4168     0
37.4294     0
37.4419     0
37.4544     1
37.4669     0
37.4794     0
37.4919     1
37.5044     0
37.5169     1
37.5294     0
37.5419     2
37.5544     1
37.5669     0
37.5794     0
37.5919     2
37.6045     1
 37.617     0
37.6295     1
 37.642     1
37.6545     1
 37.667     1
37.6795     0
 37.692     1
37.7045     0
 37.717     0
37.7295     1
 37.742     0
37.7545     0
37.7671     2
37.7796     0
37.7921     1
37.8046     1
37.8171     0
37.8296     1
37.8421     0
37.8546     0
37.8671     0
37.8796     0
37.8921     0
37.9046     0
37.9171     0
37.9296     0
37.9422     1
37.9547     1
37.9672     0
37.9797     0
37.9922     2
38.0047     0
38.0172     0
38.0297     0
38.0422     1
38.0547     0
38.0672     0
38.0797     1
38.0922     0
38.1047     0
38.1173     0
38.1298     0
38.1423     0
38.1548     3
38.1673     0
38.1798     0
38.1923     1
38.2048     0
38.2173     0
38.2298     0
38.2423     1
38.2548     1
38.2673     0
38.2798     2
38.2924     0
38.3049     0
38.3174     0
38.3299     0
38.3424     0
38.3549     0
38.3674     0
38.3799     0
38.3924     0
38.4049     0
38.4174     1
38.4299     0
38.4424     0
 38.455     3
38.4675     0
  38.48     0
38.4925     0
 38.505     1
38.5175     1
  38.53     0
38.5425     0
 38.555     1
38.5675     0
  38.58     0
38.5925     0
 38.605     0
38.6175     1
38.6301     0
38.6426     1
38.6551     0
38.6676     1
38.6801     0
38.6926     0
38.7051     0
38.7176     0
38.7301     0
38.7426     0
38.7551     0
38.7676     0
38.7801     2
38.7926     1
38.8052     2
38.8177     0
38.8302     1
38.8427     0
38.8552     1
38.8677     0
38.8802     0
38.8927     0
38.9052     0
38.9177     1
38.9302     0
38.9427     0
38.9552     0
38.9677     0
38.9803     1
38.9928     1
39.0053     0
39.0178     0
39.0303     0
39.0428     0
39.0553     1
39.0678     0
39.0803     0
39.0928     1
39.1053     1
39.1178     0
39.1303     0
39.1429     0
39.1554     2
39.1679     0
39.1804     0
39.1929     1
39.2054     1
39.2179     1
39.2304     0
39.2429     1
39.2554     0
39.2679     1
39.2804     0
39.2929     1
39.3054     0
 39.318     0
39.3305     0
 39.343     0
39.3555     1
 39.368     0
39.3805     1
 39.393     0
39.4055     0
 39.418     0
39.4305     2
 39.443     0
39.4555     0
 39.468     0
39.4805     0
39.4931     1
39.5056     1
39.5181     1
39.5306     1
39.5431     0
39.5556     0
39.5681     0
39.5806     0
39.5931     0
39.6056     1
39.6181     0
39.6306     0
39.6431     0
39.6556     0
39.6682     0
39.6807     0
39.6932     0
39.7057     0
39.7182     0
39.7307     0
39.7432     1
39.7557     0
39.7682     0
39.7807     0
39.7932     0
39.8057     1
39.8182     0
39.8308     0
39.8433     1
39.8558     0
39.8683     1
39.8808     0
39.8933     1
39.9058     0
39.9183     0
39.9308     1
39.9433     0
39.9558     0
39.9683     1
39.9808     1
39.9933     1
40.0059     0
40.0184     0
40.0309     0
40.0434     1
40.0559     0
40.0684     0
40.0809     0
40.0934     0
40.1059     0
40.1184     0
40.1309     1
40.1434     0
40.1559     0
40.1684     1
 40.181     1
40.1935     0
 40.206     0
40.2185     0
 40.231     0
40.2435     0
 40.256     0
40.2685     0
 40.281     0
40.2935     0
 40.306     0
40.3185     0
 40.331     0
40.3435     0
40.3561     0
40.3686     1
40.3811     0
40.3936     0
40.4061     0
40.4186     0
40.4311     0
40.4436     0
40.4561     1
40.4686     0
40.4811     0
40.4936     0
40.5061     0
40.5187     0
40.5312     2
40.5437     0
40.5562     0
40.5687     1
40.5812     0
40.5937     0
40.6062     0
40.6187     0
40.6312     0
40.6437     2
40.6562     0
40.6687     0
40.6812     0
40.6938     0
40.7063     0
40.7188     0
40.7313     0
40.7438     0
40.7563     0
40.7688     0
40.7813     0
40.7938     0
40.8063     0
40.8188     0
40.8313     0
40.8438     0
40.8563     0
40.8689     0
40.8814     0
40.8939     0
40.9064     0
40.9189     0
40.9314     1
40.9439     0
40.9564     1
40.9689     0
40.9814     1
40.9939     0
41.0064     0
41.0189     1
41.0314     0
 41.044     0
41.0565     1
 41.069     0
41.0815     0
 41.094     0
41.1065     0
 41.119     1
41.1315     0
 41.144     0
41.1565     0
 41.169     0
41.1815     0
 41.194     0
41.2066     0
41.2191     0
41.2316     0
41.2441     0
41.2566     0
41.2691     0
41.2816     0
41.2941     0
41.3066     0
41.3191     0
41.3316     1
41.3441     0
41.3566     0
41.3691     0
41.3817     0
41.3942     0
41.4067     0
41.4192     0
41.4317     0
41.4442     1
41.4567     0
41.4692     0
41.4817     0
41.4942     0
41.5067     0
41.5192     0
41.5317     0
41.5442     0
41.5568     0
41.5693     0
41.5818     1
41.5943     0
41.6068     0
41.6193     0
41.6318     0
41.6443     0
41.6568     0
41.6693     0
41.6818     0
41.6943     0
41.7068     0
41.7193     0
41.7319     0
41.7444     0
41.7569     0
41.7694     0
41.7819     0
41.7944     0
41.8069     0
41.8194     0
41.8319     0
41.8444     0
41.8569     1
41.8694     0
41.8819     0
41.8945     0
 41.907     0
41.9195     0
 41.932     0
41.9445     1
 41.957     0
41.9695     0
 41.982     0
41.9945     0
 42.007     0
42.0195     0
 42.032     0
42.0445     0
 42.057     0
42.0696     0
42.0821     0
42.0946     0
42.1071     0
42.1196     0
42.1321     0
42.1446     0
42.1571     0
42.1696     0
42.1821     0
42.1946     0
42.2071     0
42.2196     0
42.2321     0
42.2447     0
42.2572     0
42.2697     0
42.2822     0
42.2947     0
42.3072     0
42.3197     0
42.3322     0
42.3447     0
42.3572     0
42.3697     0
42.3822     0
42.3947     0
42.4072     0
42.4198     0
42.4323     0
42.4448     0
42.4573     0
42.4698     0
42.4823     0
42.4948     0
42.5073     0
42.5198     1
42.5323     0
42.5448     0
42.5573     0
42.5698     1
42.5824     0
42.5949     0
42.6074     0
42.6199     0
42.6324     0
42.6449     0
42.6574     1
42.6699     0
42.6824     0
42.6949     0
42.7074     0
42.7199     0
42.7324     0
42.7449     0
42.7575     0
  42.77     0
42.7825     0
 42.795     0
42.8075     1
  42.82     0
42.8325     0
 42.845     0
42.8575     0
  42.87     0
42.8825     0
 42.895     0
42.9075     0
  42.92     0
42.9326     0
42.9451     0
42.9576     0
42.9701     0
42.9826     0
42.9951     0
43.0076     0
43.0201     0
43.0326     0
43.0451     0
43.0576     0
43.0701     0
43.0826     0
43.0951     0
43.1077     0
43.1202     0
43.1327     0
43.1452     0
43.1577     0
43.1702     0
43.1827     0
43.1952     0
43.2077     0
43.2202     0
43.2327     0
43.2452     0
43.2577     0
43.2703     0
43.2828     0
43.2953     0
43.3078     0
43.3203     0
43.3328     0
43.3453     0
43.3578     0
43.3703     0
43.3828     0
43.3953     0
43.4078     0
43.4203     0
43.4328     0
43.4454     0
43.4579     0
43.4704     0
43.4829     0
43.4954     0
43.5079     0
43.5204     0
43.5329     0
43.5454     0
43.5579     0
43.5704     0
43.5829     0
43.5954     0
43.6079     0
43.6205     0
 43.633     0
43.6455     0
 43.658     0
43.6705     0
 43.683     0
43.6955     0
 43.708     0
43.7205     0
 43.733     1
43.7455     0
 43.758     0
43.7705     0
 43.783     0
43.7956     0
43.8081     0
43.8206     0
43.8331     0
43.8456     0
43.8581     0
43.8706     0
43.8831     0
43.8956     0
43.9081     0
43.9206     0
43.9331     0
43.9456     0
43.9582     0
43.9707     0
43.9832     0
43.9957     0
44.0082     0
44.0207     0
44.0332     0
44.0457     0
44.0582     0
44.0707     0
44.0832     0
44.0957     0
44.1082     0
44.1207     0
44.1333     0
44.1458     0
44.1583     0
44.1708     0
44.1833     0
44.1958     0
44.2083     0
44.2208     0
44.2333     0
44.2458     0
44.2583     0
44.2708     0
44.2833     0
44.2958     0
44.3084     0
44.3209     0
44.3334     0
44.3459     0
44.3584     0
44.3709     0
44.3834     0
44.3959     0
44.4084     0
44.4209     0
44.4334     0
44.4459     0
44.4584     0
44.4709     0
44.4835     0
 44.496     0
44.5085     0
 44.521     0
44.5335     0
 44.546     0
44.5585     0
 44.571     0
44.5835     1
 44.596     0
44.6085     0
 44.621     0
44.6335     0
44.6461     0
44.6586     0
44.6711     0
44.6836     0
44.6961     0
44.7086     0
44.7211     0
44.7336     0
44.7461     0
44.7586     0
44.7711     0
44.7836     0
44.7961     0
44.8086     0
44.8212     0
44.8337     0
44.8462     0
44.8587     0
44.8712     0
44.8837     0
44.8962     0
44.9087     0
44.9212     0
44.9337     0
44.9462     0
44.9587     0
44.9712     0
44.9837     0
44.9963     0
45.0088     0
45.0213     0
45.0338     0
45.0463     0
45.0588     0
45.0713     0
45.0838     0
45.0963     0
45.1088     0
45.1213     0
45.1338     0
45.1463     0
45.1588     0
45.1714     0
45.1839     0
45.1964     0
45.2089     0
45.2214     0
45.2339     0
45.2464     0
45.2589     0
45.2714     0
45.2839     0
45.2964     0
45.3089     0
45.3214     0
 45.334     0
45.3465     0
 45.359     0
45.3715     0
 45.384     0
45.3965     0
 45.409     0
45.4215     0
 45.434     0
45.4465     0
 45.459     0
45.4715     0
 45.484     0
45.4965     0
45.5091     0
45.5216     0
45.5341     0
45.5466     0
45.5591     0
45.5716     1
45.5841     0
45.5966     0
45.6091     1
45.6216     0
45.6341     0
45.6466     0
45.6591     0
45.6716     0
45.6842     0
45.6967     0
45.7092     0
45.7217     0
45.7342     0
45.7467     0
45.7592     0
45.7717     0
45.7842     0
45.7967     0
45.8092     0
45.8217     0
45.8342     0
45.8467     0
45.8593     0
45.8718     0
45.8843     0
45.8968     0
45.9093     0
45.9218     0
45.9343     0
45.9468     0
45.9593     0
45.9718     0
45.9843     0
45.9968     0
46.0093     0
46.0219     0
46.0344     0
46.0469     0
46.0594     0
46.0719     0
46.0844     0
46.0969     0
46.1094     0
46.1219     0
46.1344     0
46.1469     0
46.1594     0
46.1719     0
46.1844     0
 46.197     0
46.2095     0
 46.222     0
46.2345     0
 46.247     0
46.2595     0
 46.272     0
46.2845     0
 46.297     0
46.3095     0
 46.322     0
46.3345     0
 46.347     0
46.3595     0
46.3721     0
46.3846     0
46.3971     0
46.4096     0
46.4221     0
46.4346     0
46.4471     0
46.4596     0
46.4721     0
46.4846     0
46.4971     0
46.5096     0
46.5221     0
46.5346     0
46.5472     0
46.5597     0
46.5722     0
46.5847     0
46.5972     0
46.6097     0
46.6222     0
46.6347     0
46.6472     0
46.6597     0
46.6722     0
46.6847     0
46.6972     0
46.7098     0
46.7223     0
46.7348     0
46.7473     0
46.7598     0
46.7723     0
46.7848     0
46.7973     0
46.8098     0
46.8223     0
46.8348     0
46.8473     0
46.8598     0
46.8723     0
46.8849     0
46.8974     0
46.9099     0
46.9224     0
46.9349     0
46.9474     0
46.9599     0
46.9724     0
46.9849     0
46.9974     0
47.0099     0
47.0224     0
47.0349     0
47.0474     0
  47.06     0
47.0725     0
 47.085     0
47.0975     0
  47.11     0
47.1225     0
 47.135     0
47.1475     0
  47.16     0
47.1725     0
 47.185     0
47.1975     0
  47.21     0
47.2225     0
47.2351     0
47.2476     0
47.2601     0
47.2726     0
47.2851     0
47.2976     0
47.3101     0
47.3226     0
47.3351     0
47.3476     0
47.3601     0
47.3726     0
47.3851     0
47.3977     0
47.4102     0
47.4227     0
47.4352     0
47.4477     0
47.4602     0
47.4727     0
47.4852     0
47.4977     0
47.5102     0
47.5227     0
47.5352     0
47.5477     0
47.5602     0
47.5728     0
47.5853     0
47.5978     0
47.6103     0
47.6228     0
47.6353     0
47.6478     0
47.6603     0
47.6728     0
47.6853     0
47.6978     0
47.7103     0
47.7228     0
47.7353     0
47.7479     0
47.7604     0
47.7729     0
47.7854     0
47.7979     0
47.8104     0
47.8229     0
47.8354     0
47.8479     0
47.8604     0
47.8729     0
47.8854     0
47.8979     0
47.9104     0
 47.923     0
47.9355     0
 47.948     0
47.9605     0
 47.973     0
47.9855     0
 47.998     0
48.0105     0
 48.023     0
48.0355     0
 48.048     0
48.0605     0
 48.073     0
48.0856     0
48.0981     0
48.1106     0
48.1231     0
48.1356     0
48.1481     0
48.1606     0
48.1731     0
48.1856     0
48.1981     0
48.2106     0
48.2231     0
48.2356     0
48.2481     0
48.2607     0
48.2732     0
48.2857     0
48.2982     0
48.3107     0
48.3232     0
48.3357     0
48.3482     0
48.3607     0
48.3732     0
48.3857     0
48.3982     0
48.4107     0
48.4232     0
48.4358     0
48.4483     0
48.4608     0
48.4733     0
48.4858     0
48.4983     0
48.5108     0
48.5233     0
48.5358     0
48.5483     0
48.5608     0
48.5733     0
48.5858     0
48.5983     0
48.6109     0
48.6234     0
48.6359     0
48.6484     0
48.6609     0
48.6734     0
48.6859     0
48.6984     0
48.7109     0
48.7234     0
48.7359     0
48.7484     0
48.7609     0
48.7735     0
 48.786     0
48.7985     0
 48.811     0
48.8235     0
 48.836     0
48.8485     0
 48.861     0
48.8735     0
 48.886     0
48.8985     0
 48.911     0
48.9235     0
 48.936     0
48.9486     0
48.9611     0
48.9736     0
48.9861     0
48.9986     0
49.0111     0
49.0236     0
49.0361     0
49.0486     0
49.0611     0
49.0736     0
49.0861     0
49.0986     0
49.1111     0
49.1237     0
49.1362     0
49.1487     0
49.1612     0
49.1737     0
49.1862     0
49.1987     0
49.2112     0
49.2237     0
49.2362     0
49.2487     0
49.2612     0
49.2737     0
49.2862     0
49.2988     0
49.3113     0
49.3238     0
49.3363     0
49.3488     0
49.3613     0
49.3738     0
49.3863     0
49.3988     0
49.4113     0
49.4238     0
49.4363     0
49.4488     0
49.4614     0
49.4739     0
49.4864     0
49.4989     0
49.5114     0
49.5239     0
49.5364     0
49.5489     0
49.5614     0
49.5739     0
49.5864     0
49.5989     0
49.6114     0
49.6239     0
49.6365     0
 49.649     0
49.6615     0
 49.674     0
49.6865     0
 49.699     0
49.7115     0
 49.724     0
49.7365     0
 49.749     0
49.7615     0
 49.774     0
49.7865     0
 49.799     0
49.8116     0
49.8241     0
49.8366     0
49.8491     0
49.8616     0
49.8741     0
49.8866     0
49.8991     0
49.9116     0
49.9241     0
49.9366     0
49.9491     0
49.9616     0
49.9741     0
49.9867     0
49.9992     0
50.0117     0
50.0242     0
