RÖNTEC GmbH Berlin, Germany
Quantax 1.2

Date: 3/3/2015 12:32:17 PM
Real time: 60855
Life time: 60004
Pulse density: 5836


Detector type: XFLASH 3001
Window type: 
Detector thickness: 0.45
Si dead layer:0

Calibration, lin.: 12.507
Calibration, abs.: -1193.107
Mn FWHM: 142.37
Fano factor: 0.105
Channels: 4096

Energy Counts
-1.1931     0
-1.1806     0
-1.1681     0
-1.1556     0
-1.1431     0
-1.1306     0
-1.1181     0
-1.1056     0
 -1.093     0
-1.0805     0
 -1.068     0
-1.0555     0
 -1.043     0
-1.0305     0
 -1.018     0
-1.0055     0
 -0.993     0
-0.9805     0
 -0.968     0
-0.9555     0
 -0.943     0
-0.9305     0
-0.9179     0
-0.9054     0
-0.8929     0
-0.8804     0
-0.8679     0
-0.8554     0
-0.8429     0
-0.8304     0
-0.8179     0
-0.8054     0
-0.7929     0
-0.7804     0
-0.7679     0
-0.7554     0
-0.7428     0
-0.7303     0
-0.7178     0
-0.7053     0
-0.6928     0
-0.6803     0
-0.6678     0
-0.6553     0
-0.6428     0
-0.6303     0
-0.6178     0
-0.6053     0
-0.5928     0
-0.5803     0
-0.5677     0
-0.5552     0
-0.5427     0
-0.5302     0
-0.5177     0
-0.5052     0
-0.4927     0
-0.4802     0
-0.4677     0
-0.4552     0
-0.4427     0
-0.4302     0
-0.4177     0
-0.4051     0
-0.3926     0
-0.3801     0
-0.3676     0
-0.3551     0
-0.3426     0
-0.3301     0
-0.3176     0
-0.3051     0
-0.2926     0
-0.2801     0
-0.2676     0
-0.2551     0
-0.2426     0
  -0.23     0
-0.2175     0
 -0.205     0
-0.1925     0
  -0.18     0
-0.1675     0
 -0.155     0
-0.1425     3
  -0.13    13
-0.1175    79
 -0.105   235
-0.0925   852
  -0.08  2474
-0.0675  6180
-0.0549 13516
-0.0424 25697
-0.0299 42495
-0.0174 62411
-0.0049 78474
 0.0076 87084
 0.0201 84713
 0.0326 72186
 0.0451 53045
 0.0576 34167
 0.0701 19280
 0.0826  9518
 0.0951  4191
 0.1076  1643
 0.1202   497
 0.1327   142
 0.1452    39
 0.1577     9
 0.1702     2
 0.1827     0
 0.1952     1
 0.2077     1
 0.2202     1
 0.2327     0
 0.2452     1
 0.2577     2
 0.2702     1
 0.2828     0
 0.2953     0
 0.3078     0
 0.3203     0
 0.3328     0
 0.3453     0
 0.3578     0
 0.3703     0
 0.3828     0
 0.3953     0
 0.4078     0
 0.4203     0
 0.4328     6
 0.4453    20
 0.4579    32
 0.4704    55
 0.4829    55
 0.4954    34
 0.5079    47
 0.5204    40
 0.5329    45
 0.5454    36
 0.5579    43
 0.5704    45
 0.5829    44
 0.5954    37
 0.6079    36
 0.6204    53
  0.633    25
 0.6455    40
  0.658    37
 0.6705    31
  0.683    31
 0.6955    32
  0.708    33
 0.7205    24
  0.733    39
 0.7455    26
  0.758    24
 0.7705    35
  0.783    22
 0.7955    21
 0.8081    35
 0.8206    32
 0.8331    31
 0.8456    16
 0.8581    24
 0.8706    31
 0.8831    25
 0.8956    28
 0.9081    20
 0.9206    17
 0.9331    23
 0.9456    25
 0.9581    28
 0.9707    24
 0.9832    23
 0.9957    18
 1.0082    30
 1.0207    20
 1.0332    13
 1.0457    15
 1.0582    18
 1.0707    20
 1.0832    24
 1.0957    23
 1.1082    18
 1.1207    21
 1.1332    23
 1.1458    15
 1.1583    28
 1.1708    19
 1.1833    22
 1.1958    25
 1.2083    20
 1.2208    26
 1.2333    22
 1.2458    22
 1.2583    26
 1.2708    21
 1.2833    23
 1.2958    18
 1.3083    14
 1.3209    24
 1.3334    16
 1.3459    11
 1.3584    27
 1.3709    20
 1.3834    23
 1.3959    24
 1.4084    23
 1.4209    19
 1.4334    21
 1.4459    16
 1.4584    18
 1.4709    17
 1.4834    19
  1.496    23
 1.5085    24
  1.521    14
 1.5335    18
  1.546    21
 1.5585    18
  1.571    12
 1.5835    16
  1.596    14
 1.6085    17
  1.621    16
 1.6335    33
  1.646    16
 1.6586    23
 1.6711    16
 1.6836    19
 1.6961    16
 1.7086    23
 1.7211    22
 1.7336    28
 1.7461    29
 1.7586    30
 1.7711    24
 1.7836    32
 1.7961    20
 1.8086    20
 1.8211    21
 1.8337    18
 1.8462    23
 1.8587    25
 1.8712    19
 1.8837    23
 1.8962    17
 1.9087    23
 1.9212    26
 1.9337    24
 1.9462    25
 1.9587    18
 1.9712    35
 1.9837    25
 1.9962    27
 2.0088    30
 2.0213    33
 2.0338    32
 2.0463    38
 2.0588    71
 2.0713    63
 2.0838    78
 2.0963    98
 2.1088   127
 2.1213   174
 2.1338   205
 2.1463   232
 2.1588   285
 2.1713   337
 2.1839   378
 2.1964   367
 2.2089   446
 2.2214   404
 2.2339   469
 2.2464   422
 2.2589   428
 2.2714   415
 2.2839   419
 2.2964   409
 2.3089   430
 2.3214   400
 2.3339   369
 2.3465   302
  2.359   264
 2.3715   226
  2.384   199
 2.3965   185
  2.409   167
 2.4215   145
  2.434   112
 2.4465   114
  2.459   119
 2.4715    87
  2.484    89
 2.4965    92
  2.509    80
 2.5216    76
 2.5341    61
 2.5466    43
 2.5591    32
 2.5716    34
 2.5841    34
 2.5966    25
 2.6091    16
 2.6216    33
 2.6341    28
 2.6466    16
 2.6591    25
 2.6716    31
 2.6841    12
 2.6967    26
 2.7092    30
 2.7217    29
 2.7342    23
 2.7467    29
 2.7592    17
 2.7717    18
 2.7842    23
 2.7967    20
 2.8092    22
 2.8217    31
 2.8342    27
 2.8467    32
 2.8592    27
 2.8718    26
 2.8843    40
 2.8968    38
 2.9093    54
 2.9218    38
 2.9343    34
 2.9468    54
 2.9593    56
 2.9718    47
 2.9843    55
 2.9968    49
 3.0093    46
 3.0218    39
 3.0344    35
 3.0469    42
 3.0594    26
 3.0719    29
 3.0844    23
 3.0969    22
 3.1094    20
 3.1219    32
 3.1344    22
 3.1469    29
 3.1594    26
 3.1719    27
 3.1844    26
 3.1969    28
 3.2095    27
  3.222    19
 3.2345    27
  3.247    28
 3.2595    33
  3.272    25
 3.2845    31
  3.297    42
 3.3095    42
  3.322    47
 3.3345    42
  3.347    46
 3.3595    59
  3.372    37
 3.3846    32
 3.3971    19
 3.4096    27
 3.4221    24
 3.4346    15
 3.4471    25
 3.4596    23
 3.4721    19
 3.4846    10
 3.4971    11
 3.5096    15
 3.5221    16
 3.5346    18
 3.5471    33
 3.5597    18
 3.5722    32
 3.5847    28
 3.5972    47
 3.6097    70
 3.6222   106
 3.6347   124
 3.6472   177
 3.6597   203
 3.6722   222
 3.6847   250
 3.6972   275
 3.7097   268
 3.7223   273
 3.7348   229
 3.7473   191
 3.7598   185
 3.7723   124
 3.7848   101
 3.7973    81
 3.8098    46
 3.8223    35
 3.8348    24
 3.8473    20
 3.8598    21
 3.8723    16
 3.8848    14
 3.8974    20
 3.9099    19
 3.9224    30
 3.9349    24
 3.9474    19
 3.9599    30
 3.9724    40
 3.9849    51
 3.9974    60
 4.0099    40
 4.0224    57
 4.0349    48
 4.0474    45
 4.0599    42
 4.0725    32
  4.085    33
 4.0975    25
   4.11    33
 4.1225    23
  4.135    18
 4.1475    18
   4.16    20
 4.1725    20
  4.185    14
 4.1975    17
   4.21    10
 4.2225    14
  4.235    21
 4.2476    14
 4.2601    15
 4.2726     7
 4.2851    13
 4.2976    15
 4.3101    14
 4.3226    12
 4.3351    12
 4.3476    15
 4.3601    20
 4.3726    19
 4.3851    12
 4.3976    17
 4.4102    20
 4.4227    18
 4.4352    24
 4.4477    24
 4.4602    22
 4.4727    22
 4.4852    37
 4.4977    27
 4.5102    18
 4.5227    30
 4.5352    32
 4.5477    29
 4.5602    32
 4.5727    24
 4.5853    24
 4.5978    23
 4.6103    22
 4.6228    11
 4.6353    20
 4.6478    16
 4.6603    16
 4.6728    19
 4.6853    15
 4.6978    21
 4.7103    19
 4.7228    19
 4.7353    25
 4.7478    15
 4.7604    18
 4.7729    14
 4.7854    12
 4.7979    17
 4.8104    19
 4.8229    12
 4.8354    15
 4.8479    14
 4.8604    18
 4.8729    15
 4.8854    14
 4.8979    21
 4.9104    19
 4.9229    26
 4.9355    15
  4.948    19
 4.9605    28
  4.973    17
 4.9855    13
  4.998    21
 5.0105    25
  5.023    20
 5.0355    23
  5.048    17
 5.0605    18
  5.073    24
 5.0855    16
 5.0981    15
 5.1106    25
 5.1231    18
 5.1356    16
 5.1481    18
 5.1606    19
 5.1731    23
 5.1856    25
 5.1981    24
 5.2106    37
 5.2231    23
 5.2356    28
 5.2481    26
 5.2606    24
 5.2732    20
 5.2857    24
 5.2982    29
 5.3107    18
 5.3232    25
 5.3357    21
 5.3482    24
 5.3607    26
 5.3732    14
 5.3857    27
 5.3982    22
 5.4107    28
 5.4232    28
 5.4357    23
 5.4483    17
 5.4608    25
 5.4733    20
 5.4858    30
 5.4983    22
 5.5108    20
 5.5233    25
 5.5358    33
 5.5483    29
 5.5608    33
 5.5733    30
 5.5858    40
 5.5983    34
 5.6108    44
 5.6234    28
 5.6359    38
 5.6484    41
 5.6609    37
 5.6734    34
 5.6859    44
 5.6984    32
 5.7109    37
 5.7234    49
 5.7359    52
 5.7484    39
 5.7609    47
 5.7734    32
  5.786    34
 5.7985    35
  5.811    38
 5.8235    31
  5.836    41
 5.8485    36
  5.861    37
 5.8735    34
  5.886    39
 5.8985    41
  5.911    25
 5.9235    37
  5.936    30
 5.9485    39
 5.9611    31
 5.9736    34
 5.9861    37
 5.9986    23
 6.0111    41
 6.0236    36
 6.0361    30
 6.0486    42
 6.0611    18
 6.0736    32
 6.0861    46
 6.0986    32
 6.1111    29
 6.1236    39
 6.1362    28
 6.1487    29
 6.1612    34
 6.1737    33
 6.1862    34
 6.1987    47
 6.2112    46
 6.2237    58
 6.2362    75
 6.2487   108
 6.2612   143
 6.2737   225
 6.2862   312
 6.2988   394
 6.3113   544
 6.3238   675
 6.3363   880
 6.3488  1076
 6.3613  1293
 6.3738  1397
 6.3863  1488
 6.3988  1478
 6.4113  1466
 6.4238  1494
 6.4363  1310
 6.4488  1197
 6.4613   990
 6.4739   850
 6.4864   657
 6.4989   500
 6.5114   379
 6.5239   250
 6.5364   183
 6.5489   123
 6.5614   104
 6.5739    81
 6.5864    52
 6.5989    48
 6.6114    33
 6.6239    33
 6.6364    33
  6.649    30
 6.6615    33
  6.674    37
 6.6865    30
  6.699    40
 6.7115    29
  6.724    28
 6.7365    30
  6.749    34
 6.7615    38
  6.774    43
 6.7865    49
  6.799    23
 6.8115    27
 6.8241    42
 6.8366    49
 6.8491    42
 6.8616    40
 6.8741    50
 6.8866    51
 6.8991    64
 6.9116    73
 6.9241    97
 6.9366    80
 6.9491    94
 6.9616   123
 6.9741   114
 6.9867   159
 6.9992   215
 7.0117   201
 7.0242   240
 7.0367   217
 7.0492   276
 7.0617   248
 7.0742   245
 7.0867   246
 7.0992   230
 7.1117   171
 7.1242   156
 7.1367   174
 7.1492   105
 7.1618   121
 7.1743    96
 7.1868    75
 7.1993    74
 7.2118    63
 7.2243    40
 7.2368    56
 7.2493    36
 7.2618    43
 7.2743    61
 7.2868    40
 7.2993    55
 7.3118    46
 7.3243    55
 7.3369    69
 7.3494    75
 7.3619    73
 7.3744    74
 7.3869    82
 7.3994    69
 7.4119    82
 7.4244    78
 7.4369    77
 7.4494    68
 7.4619    78
 7.4744    82
 7.4869    78
 7.4994    76
  7.512    81
 7.5245    72
  7.537    57
 7.5495    87
  7.562    67
 7.5745    69
  7.587    59
 7.5995    63
  7.612    51
 7.6245    52
  7.637    63
 7.6495    56
  7.662    53
 7.6746    63
 7.6871    68
 7.6996    52
 7.7121    58
 7.7246    50
 7.7371    51
 7.7496    56
 7.7621    54
 7.7746    61
 7.7871    55
 7.7996    59
 7.8121    57
 7.8246    53
 7.8371    66
 7.8497    52
 7.8622    69
 7.8747    59
 7.8872    65
 7.8997    57
 7.9122    80
 7.9247    86
 7.9372    76
 7.9497    72
 7.9622   108
 7.9747   100
 7.9872   113
 7.9997   110
 8.0122   119
 8.0248   132
 8.0373   127
 8.0498   146
 8.0623   127
 8.0748   163
 8.0873   135
 8.0998   149
 8.1123   127
 8.1248   139
 8.1373   153
 8.1498   156
 8.1623   197
 8.1748   165
 8.1873   183
 8.1999   200
 8.2124   221
 8.2249   219
 8.2374   234
 8.2499   268
 8.2624   371
 8.2749   393
 8.2874   446
 8.2999   526
 8.3124   613
 8.3249   666
 8.3374   824
 8.3499   896
 8.3625   949
  8.375   952
 8.3875  1023
    8.4  1021
 8.4125   920
  8.425   943
 8.4375   870
   8.45   759
 8.4625   690
  8.475   628
 8.4875   543
    8.5   423
 8.5125   358
  8.525   296
 8.5376   279
 8.5501   209
 8.5626   170
 8.5751   167
 8.5876   141
 8.6001   143
 8.6126   127
 8.6251   151
 8.6376   145
 8.6501   148
 8.6626   152
 8.6751   162
 8.6876   171
 8.7001   200
 8.7127   187
 8.7252   185
 8.7377   201
 8.7502   183
 8.7627   162
 8.7752   159
 8.7877   148
 8.8002   170
 8.8127   154
 8.8252   128
 8.8377   125
 8.8502   114
 8.8627    92
 8.8752    96
 8.8878   105
 8.9003    98
 8.9128    89
 8.9253    85
 8.9378    91
 8.9503    78
 8.9628    96
 8.9753    79
 8.9878    83
 9.0003    76
 9.0128   112
 9.0253   109
 9.0378   119
 9.0504   138
 9.0629   135
 9.0754   144
 9.0879   196
 9.1004   195
 9.1129   258
 9.1254   259
 9.1379   256
 9.1504   289
 9.1629   291
 9.1754   320
 9.1879   325
 9.2004   319
 9.2129   318
 9.2255   295
  9.238   267
 9.2505   297
  9.263   252
 9.2755   199
  9.288   232
 9.3005   218
  9.313   199
 9.3255   195
  9.338   180
 9.3505   183
  9.363   192
 9.3755   174
  9.388   187
 9.4006   203
 9.4131   189
 9.4256   201
 9.4381   208
 9.4506   209
 9.4631   235
 9.4756   251
 9.4881   291
 9.5006   318
 9.5131   373
 9.5256   390
 9.5381   471
 9.5506   527
 9.5631   602
 9.5757   657
 9.5882   780
 9.6007   896
 9.6132  1073
 9.6257  1206
 9.6382  1329
 9.6507  1448
 9.6632  1551
 9.6757  1636
 9.6882  1669
 9.7007  1646
 9.7132  1722
 9.7257  1582
 9.7383  1464
 9.7508  1436
 9.7633  1323
 9.7758  1174
 9.7883  1089
 9.8008   984
 9.8133   966
 9.8258  1012
 9.8383   979
 9.8508  1009
 9.8633  1167
 9.8758  1304
 9.8883  1457
 9.9008  1624
 9.9134  1806
 9.9259  2056
 9.9384  2150
 9.9509  2278
 9.9634  2395
 9.9759  2469
 9.9884  2455
10.0009  2382
10.0134  2182
10.0259  1906
10.0384  1776
10.0509  1640
10.0634  1331
10.0759  1140
10.0885   920
 10.101   749
10.1135   605
 10.126   472
10.1385   354
 10.151   317
10.1635   213
 10.176   196
10.1885   160
 10.201   149
10.2135   124
 10.226   129
10.2385   120
 10.251   139
10.2636   172
10.2761   165
10.2886   175
10.3011   264
10.3136   255
10.3261   257
10.3386   379
10.3511   486
10.3636   634
10.3761   751
10.3886   970
10.4011  1111
10.4136  1377
10.4262  1751
10.4387  2087
10.4512  2361
10.4637  2834
10.4762  3292
10.4887  3484
10.5012  3937
10.5137  4175
10.5262  4255
10.5387  4343
10.5512  4447
10.5637  4225
10.5762  4164
10.5887  3690
10.6013  3521
10.6138  2912
10.6263  2626
10.6388  2148
10.6513  1691
10.6638  1363
10.6763  1160
10.6888   909
10.7013   648
10.7138   495
10.7263   379
10.7388   283
10.7513   221
10.7638   151
10.7764   146
10.7889    99
10.8014   109
10.8139    85
10.8264    83
10.8389    76
10.8514    73
10.8639    55
10.8764    69
10.8889    62
10.9014    65
10.9139    86
10.9264    68
10.9389    79
10.9515    59
 10.964    35
10.9765    53
 10.989    53
11.0015    79
 11.014    63
11.0265    61
 11.039    77
11.0515    70
 11.064    77
11.0765    76
 11.089    94
11.1015    98
11.1141    96
11.1266   120
11.1391   104
11.1516   139
11.1641   141
11.1766   133
11.1891   158
11.2016   149
11.2141   184
11.2266   201
11.2391   228
11.2516   212
11.2641   239
11.2766   278
11.2892   313
11.3017   317
11.3142   374
11.3267   421
11.3392   471
11.3517   464
11.3642   575
11.3767   590
11.3892   645
11.4017   680
11.4142   655
11.4267   719
11.4392   704
11.4517   744
11.4643   697
11.4768   688
11.4893   670
11.5018   638
11.5143   583
11.5268   634
11.5393   584
11.5518   550
11.5643   539
11.5768   544
11.5893   490
11.6018   484
11.6143   470
11.6268   447
11.6394   435
11.6519   432
11.6644   459
11.6769   496
11.6894   479
11.7019   595
11.7144   599
11.7269   660
11.7394   801
11.7519   852
11.7644  1015
11.7769  1038
11.7894  1216
 11.802  1217
11.8145  1229
 11.827  1322
11.8395  1207
 11.852  1265
11.8645  1232
 11.877  1104
11.8895  1058
 11.902  1021
11.9145   961
 11.927   860
11.9395   756
 11.952   700
11.9645   648
11.9771   587
11.9896   498
12.0021   447
12.0146   403
12.0271   362
12.0396   352
12.0521   301
12.0646   284
12.0771   250
12.0896   217
12.1021   195
12.1146   203
12.1271   169
12.1396   172
12.1522   199
12.1647   212
12.1772   197
12.1897   195
12.2022   214
12.2147   232
12.2272   228
12.2397   268
12.2522   272
12.2647   257
12.2772   260
12.2897   266
12.3022   250
12.3147   241
12.3273   237
12.3398   265
12.3523   249
12.3648   241
12.3773   245
12.3898   236
12.4023   317
12.4148   331
12.4273   406
12.4398   513
12.4523   591
12.4648   759
12.4773   945
12.4899  1142
12.5024  1460
12.5149  1606
12.5274  1854
12.5399  2123
12.5524  2253
12.5649  2555
12.5774  2664
12.5899  2731
12.6024  2762
12.6149  2830
12.6274  2744
12.6399  2519
12.6524  2504
 12.665  2216
12.6775  1985
  12.69  1780
12.7025  1551
 12.715  1355
12.7275  1109
  12.74   959
12.7525   827
 12.765   675
12.7775   576
  12.79   473
12.8025   389
 12.815   316
12.8275   295
12.8401   260
12.8526   237
12.8651   226
12.8776   174
12.8901   177
12.9026   148
12.9151   141
12.9276   135
12.9401   153
12.9526   150
12.9651   142
12.9776   124
12.9901   118
13.0026   156
13.0152   115
13.0277   133
13.0402    94
13.0527   125
13.0652    88
13.0777    99
13.0902    93
13.1027    70
13.1152    77
13.1277    53
13.1402    71
13.1527    65
13.1652    59
13.1778    53
13.1903    54
13.2028    55
13.2153    49
13.2278    57
13.2403    61
13.2528    59
13.2653    73
13.2778    86
13.2903   102
13.3028    88
13.3153   107
13.3278   108
13.3403   117
13.3529   116
13.3654   118
13.3779   129
13.3904   125
13.4029   108
13.4154    95
13.4279    90
13.4404    91
13.4529    78
13.4654    64
13.4779    58
13.4904    52
13.5029    37
13.5154    50
 13.528    38
13.5405    32
 13.553    35
13.5655    35
 13.578    38
13.5905    39
 13.603    41
13.6155    48
 13.628    54
13.6405    40
 13.653    57
13.6655    74
 13.678    86
13.6905    89
13.7031   103
13.7156   128
13.7281   127
13.7406   133
13.7531   153
13.7656   184
13.7781   176
13.7906   174
13.8031   182
13.8156   201
13.8281   170
13.8406   146
13.8531   159
13.8657   150
13.8782   140
13.8907   127
13.9032   115
13.9157   115
13.9282    85
13.9407    73
13.9532    60
13.9657    49
13.9782    65
13.9907    36
14.0032    40
14.0157    33
14.0282    38
14.0408    41
14.0533    35
14.0658    42
14.0783    42
14.0908    40
14.1033    44
14.1158    50
14.1283    51
14.1408    64
14.1533    63
14.1658    70
14.1783    79
14.1908    71
14.2033    69
14.2159    76
14.2284    66
14.2409    66
14.2534    63
14.2659    73
14.2784    54
14.2909    59
14.3034    49
14.3159    53
14.3284    47
14.3409    41
14.3534    40
14.3659    27
14.3784    40
 14.391    17
14.4035    30
 14.416    26
14.4285    24
 14.441    37
14.4535    29
 14.466    30
14.4785    20
 14.491    19
14.5035    17
 14.516    21
14.5285    23
 14.541    41
14.5536    52
14.5661    58
14.5786    56
14.5911    58
14.6036   115
14.6161   125
14.6286   144
14.6411   164
14.6536   188
14.6661   206
14.6786   231
14.6911   261
14.7036   281
14.7161   285
14.7287   300
14.7412   338
14.7537   290
14.7662   313
14.7787   327
14.7912   302
14.8037   249
14.8162   254
14.8287   173
14.8412   178
14.8537   158
14.8662   138
14.8787   108
14.8912   110
14.9038    89
14.9163    64
14.9288    70
14.9413    64
14.9538    41
14.9663    52
14.9788    57
14.9913    62
15.0038    62
15.0163    55
15.0288    63
15.0413    73
15.0538    80
15.0663    74
15.0789    79
15.0914   102
15.1039    83
15.1164   105
15.1289    86
15.1414   109
15.1539    91
15.1664   119
15.1789   114
15.1914   111
15.2039    91
15.2164    90
15.2289    64
15.2415    68
 15.254    61
15.2665    51
 15.279    45
15.2915    42
 15.304    33
15.3165    38
 15.329    30
15.3415    26
 15.354    26
15.3665    17
 15.379    16
15.3915    20
 15.404    14
15.4166    17
15.4291    13
15.4416    15
15.4541    13
15.4666    10
15.4791    16
15.4916    15
15.5041    12
15.5166    14
15.5291    12
15.5416    17
15.5541    17
15.5666    13
15.5791    12
15.5917    16
15.6042    23
15.6167    25
15.6292    16
15.6417    32
15.6542    22
15.6667    39
15.6792    21
15.6917    31
15.7042    27
15.7167    40
15.7292    23
15.7417    24
15.7542    41
15.7668    26
15.7793    27
15.7918    40
15.8043    21
15.8168    24
15.8293    23
15.8418    25
15.8543    27
15.8668    17
15.8793    10
15.8918    14
15.9043     8
15.9168    11
15.9294    10
15.9419    17
15.9544    18
15.9669     6
15.9794     9
15.9919     7
16.0044    15
16.0169     8
16.0294    11
16.0419    10
16.0544     7
16.0669    10
16.0794    10
16.0919     9
16.1045     7
 16.117     8
16.1295     8
 16.142     8
16.1545     6
 16.167    15
16.1795    10
 16.192    11
16.2045    13
 16.217     9
16.2295    11
 16.242     6
16.2545     6
 16.267     9
16.2796     9
16.2921     4
16.3046    11
16.3171    10
16.3296     4
16.3421    12
16.3546     9
16.3671     8
16.3796    10
16.3921    12
16.4046    10
16.4171     6
16.4296    13
16.4421     5
16.4547     8
16.4672    11
16.4797     9
16.4922    10
16.5047    13
16.5172     5
16.5297    12
16.5422    12
16.5547    11
16.5672    16
16.5797    11
16.5922    12
16.6047    12
16.6173     7
16.6298    18
16.6423     2
16.6548     7
16.6673    12
16.6798     8
16.6923    13
16.7048     8
16.7173     7
16.7298     4
16.7423    18
16.7548     8
16.7673    10
16.7798    11
16.7924     6
16.8049     8
16.8174    14
16.8299     5
16.8424     9
16.8549     4
16.8674    14
16.8799    14
16.8924     9
16.9049     6
16.9174     4
16.9299     9
16.9424    10
16.9549    17
16.9675    10
  16.98    10
16.9925     5
 17.005     5
17.0175    11
  17.03    11
17.0425    13
 17.055     8
17.0675     6
  17.08    12
17.0925    11
 17.105     9
17.1175     8
  17.13    13
17.1426     8
17.1551     9
17.1676    12
17.1801    16
17.1926     9
17.2051    12
17.2176     7
17.2301    10
17.2426     8
17.2551     9
17.2676     6
17.2801     6
17.2926    17
17.3052     6
17.3177     9
17.3302    12
17.3427    10
17.3552    10
17.3677     7
17.3802    15
17.3927     7
17.4052     5
17.4177    10
17.4302     7
17.4427     9
17.4552     8
17.4677    12
17.4803     6
17.4928    13
17.5053    13
17.5178    13
17.5303    12
17.5428    15
17.5553    13
17.5678    12
17.5803    12
17.5928    10
17.6053    18
17.6178     8
17.6303     8
17.6428    14
17.6554     8
17.6679    16
17.6804     8
17.6929     6
17.7054    10
17.7179    15
17.7304     6
17.7429    10
17.7554     5
17.7679     6
17.7804    16
17.7929    11
17.8054     5
17.8179    10
17.8305    11
 17.843     5
17.8555     5
 17.868     8
17.8805     7
 17.893    11
17.9055     9
 17.918     4
17.9305     7
 17.943     7
17.9555     8
 17.968    13
17.9805    12
17.9931     8
18.0056     9
18.0181    12
18.0306     6
18.0431     9
18.0556     8
18.0681    11
18.0806     4
18.0931     4
18.1056    12
18.1181     6
18.1306     9
18.1431     5
18.1556     5
18.1682     6
18.1807     4
18.1932     7
18.2057     5
18.2182     8
18.2307     5
18.2432    10
18.2557     9
18.2682     4
18.2807     5
18.2932    14
18.3057     8
18.3182     9
18.3307     8
18.3433     8
18.3558    13
18.3683     8
18.3808     8
18.3933     8
18.4058     5
18.4183     2
18.4308     7
18.4433    10
18.4558     5
18.4683     3
18.4808     5
18.4933     8
18.5058     8
18.5184     6
18.5309    10
18.5434     5
18.5559     6
18.5684     8
18.5809    10
18.5934    11
18.6059     3
18.6184     7
18.6309     6
18.6434     4
18.6559     8
18.6684     5
 18.681     8
18.6935     6
 18.706     8
18.7185    12
 18.731    11
18.7435     7
 18.756     7
18.7685     9
 18.781    12
18.7935     7
 18.806     4
18.8185    11
 18.831     7
18.8435     8
18.8561     8
18.8686     8
18.8811    11
18.8936    14
18.9061     5
18.9186    10
18.9311     6
18.9436     8
18.9561    11
18.9686     6
18.9811     8
18.9936     5
19.0061     5
19.0186     8
19.0312     6
19.0437    10
19.0562    12
19.0687     7
19.0812     6
19.0937    10
19.1062     4
19.1187     5
19.1312     9
19.1437     6
19.1562    12
19.1687     9
19.1812     8
19.1937     8
19.2063     9
19.2188    11
19.2313    12
19.2438     5
19.2563     9
19.2688     7
19.2813     7
19.2938     7
19.3063     5
19.3188    12
19.3313     9
19.3438     9
19.3563     7
19.3689     5
19.3814     7
19.3939    11
19.4064     6
19.4189     9
19.4314     9
19.4439     6
19.4564    10
19.4689     6
19.4814     3
19.4939    11
19.5064     5
19.5189     9
19.5314     3
 19.544    11
19.5565    11
 19.569    13
19.5815     6
 19.594    12
19.6065     8
 19.619    10
19.6315     8
 19.644     5
19.6565     9
 19.669    16
19.6815     8
 19.694    12
19.7065     4
19.7191     8
19.7316     9
19.7441     7
19.7566    11
19.7691     9
19.7816     8
19.7941     9
19.8066     2
19.8191     3
19.8316     8
19.8441     4
19.8566     4
19.8691    12
19.8816     7
19.8942     8
19.9067    10
19.9192     5
19.9317     9
19.9442     8
19.9567     6
19.9692     9
19.9817    10
19.9942     9
20.0067    10
20.0192     9
20.0317     6
20.0442     8
20.0568    10
20.0693    10
20.0818     8
20.0943     9
20.1068     7
20.1193     8
20.1318    12
20.1443     8
20.1568     8
20.1693     4
20.1818     6
20.1943     3
20.2068     8
20.2193    10
20.2319     5
20.2444     6
20.2569    10
20.2694    18
20.2819     9
20.2944     8
20.3069     5
20.3194     5
20.3319    13
20.3444     8
20.3569     3
20.3694     9
20.3819     5
20.3944     7
 20.407     9
20.4195     8
 20.432     1
20.4445     8
 20.457    10
20.4695     4
 20.482    10
20.4945     7
 20.507     5
20.5195     3
 20.532     6
20.5445     7
 20.557    10
20.5695     5
20.5821     4
20.5946     1
20.6071     8
20.6196     6
20.6321     6
20.6446    10
20.6571     8
20.6696     6
20.6821     6
20.6946     3
20.7071     7
20.7196     7
20.7321    11
20.7447    12
20.7572    10
20.7697     5
20.7822     5
20.7947     5
20.8072     5
20.8197     9
20.8322     7
20.8447    10
20.8572     7
20.8697     6
20.8822     8
20.8947    10
20.9072     8
20.9198     8
20.9323     6
20.9448     5
20.9573     3
20.9698     8
20.9823     7
20.9948     7
21.0073    10
21.0198     7
21.0323     2
21.0448     5
21.0573    10
21.0698     3
21.0823     7
21.0949     7
21.1074     5
21.1199     4
21.1324     5
21.1449     8
21.1574     5
21.1699     9
21.1824     7
21.1949     6
21.2074    10
21.2199     5
21.2324    12
21.2449     7
21.2574     4
  21.27     6
21.2825     8
 21.295     3
21.3075     4
  21.32     7
21.3325     7
 21.345     8
21.3575     7
  21.37     7
21.3825     2
 21.395     8
21.4075     5
  21.42     4
21.4326     5
21.4451     7
21.4576     9
21.4701    12
21.4826     8
21.4951     5
21.5076     7
21.5201     4
21.5326     6
21.5451     9
21.5576     9
21.5701     2
21.5826     8
21.5951     3
21.6077     4
21.6202     4
21.6327     7
21.6452     6
21.6577     4
21.6702    10
21.6827     7
21.6952     6
21.7077     7
21.7202     4
21.7327    10
21.7452     9
21.7577    11
21.7702     6
21.7828     3
21.7953     5
21.8078     4
21.8203     6
21.8328     4
21.8453     9
21.8578     7
21.8703    13
21.8828     5
21.8953    11
21.9078    12
21.9203    16
21.9328    10
21.9453    19
21.9579     9
21.9704     8
21.9829    15
21.9954    16
22.0079     6
22.0204     5
22.0329    10
22.0454    19
22.0579    16
22.0704    13
22.0829    20
22.0954    15
22.1079     6
22.1205    17
 22.133     8
22.1455    10
 22.158    12
22.1705    13
 22.183     7
22.1955    11
 22.208     6
22.2205     9
 22.233     9
22.2455     7
 22.258     7
22.2705     8
 22.283     7
22.2956     9
22.3081    13
22.3206     6
22.3331     8
22.3456     5
22.3581     4
22.3706     6
22.3831     7
22.3956     7
22.4081     7
22.4206     9
22.4331     2
22.4456     6
22.4581     5
22.4707     5
22.4832     4
22.4957     6
22.5082     7
22.5207     8
22.5332     6
22.5457     6
22.5582     5
22.5707     7
22.5832    10
22.5957     8
22.6082     6
22.6207     6
22.6332     5
22.6458     6
22.6583    10
22.6708     1
22.6833     5
22.6958     7
22.7083     4
22.7208     5
22.7333     4
22.7458     5
22.7583     4
22.7708     2
22.7833     3
22.7958     8
22.8084     6
22.8209     6
22.8334     6
22.8459    10
22.8584    11
22.8709    11
22.8834     3
22.8959     5
22.9084     4
22.9209     6
22.9334     6
22.9459     3
22.9584     7
22.9709     5
22.9835     3
 22.996     7
23.0085     2
 23.021     4
23.0335     7
 23.046     2
23.0585     8
 23.071     2
23.0835     4
 23.096     4
23.1085     8
 23.121     5
23.1335     8
 23.146     7
23.1586     5
23.1711     7
23.1836     3
23.1961     5
23.2086     9
23.2211     7
23.2336     5
23.2461     4
23.2586     2
23.2711     6
23.2836     4
23.2961     6
23.3086     4
23.3211    12
23.3337     3
23.3462     6
23.3587     5
23.3712     4
23.3837     5
23.3962     5
23.4087     4
23.4212     4
23.4337     3
23.4462     9
23.4587     2
23.4712     2
23.4837     5
23.4963     7
23.5088     3
23.5213     3
23.5338     8
23.5463     5
23.5588     8
23.5713     4
23.5838     7
23.5963     1
23.6088     4
23.6213     3
23.6338     2
23.6463     9
23.6588     4
23.6714     4
23.6839     2
23.6964     5
23.7089     1
23.7214     2
23.7339     2
23.7464     3
23.7589     5
23.7714     4
23.7839     4
23.7964     4
23.8089     3
23.8214     3
23.8339     4
23.8465     4
 23.859     8
23.8715     2
 23.884     5
23.8965     2
 23.909     6
23.9215    11
 23.934     3
23.9465     3
 23.959     5
23.9715     3
 23.984     5
23.9965     3
 24.009     6
24.0216     7
24.0341     1
24.0466     9
24.0591     8
24.0716     4
24.0841     1
24.0966     6
24.1091     4
24.1216     2
24.1341     2
24.1466     2
24.1591     3
24.1716     4
24.1842     3
24.1967     6
24.2092     1
24.2217     4
24.2342     3
24.2467     3
24.2592     3
24.2717     1
24.2842     3
24.2967     5
24.3092     4
24.3217     2
24.3342     4
24.3467     0
24.3593     5
24.3718     4
24.3843     5
24.3968     2
24.4093     2
24.4218     6
24.4343     4
24.4468     2
24.4593     3
24.4718     4
24.4843     5
24.4968     4
24.5093     5
24.5218     6
24.5344     4
24.5469     1
24.5594     8
24.5719     2
24.5844     6
24.5969     2
24.6094     2
24.6219     4
24.6344     4
24.6469     2
24.6594     0
24.6719     4
24.6844     5
24.6969     1
24.7095     7
 24.722     1
24.7345     7
 24.747     2
24.7595     3
 24.772     6
24.7845     7
 24.797     2
24.8095     7
 24.822     4
24.8345     5
 24.847     3
24.8595     4
24.8721    11
24.8846     5
24.8971     7
24.9096     5
24.9221     6
24.9346    10
24.9471     5
24.9596     6
24.9721     8
24.9846     5
24.9971     2
25.0096     7
25.0221     4
25.0346     2
25.0472     2
25.0597     2
25.0722     3
25.0847     6
25.0972     4
25.1097     2
25.1222     5
25.1347     6
25.1472     3
25.1597     4
25.1722     6
25.1847     3
25.1972    12
25.2097     7
25.2223     4
25.2348     1
25.2473     5
25.2598     3
25.2723     1
25.2848     2
25.2973     4
25.3098     8
25.3223     5
25.3348     2
25.3473     5
25.3598     4
25.3723     7
25.3848     2
25.3974     6
25.4099     5
25.4224     4
25.4349     4
25.4474    10
25.4599     5
25.4724     6
25.4849     2
25.4974     4
25.5099     1
25.5224     6
25.5349     2
25.5474     4
  25.56     4
25.5725     5
 25.585     5
25.5975     4
  25.61     3
25.6225     1
 25.635     4
25.6475     6
  25.66     0
25.6725     4
 25.685     3
25.6975     4
  25.71     5
25.7225     1
25.7351     3
25.7476     1
25.7601     2
25.7726     1
25.7851     3
25.7976     3
25.8101     7
25.8226     2
25.8351     4
25.8476     0
25.8601     1
25.8726     7
25.8851     0
25.8976     1
25.9102     3
25.9227     2
25.9352     2
25.9477     4
25.9602     5
25.9727     2
25.9852     2
25.9977     4
26.0102     2
26.0227     2
26.0352     8
26.0477     3
26.0602     2
26.0727     1
26.0853     2
26.0978     3
26.1103     4
26.1228     3
26.1353     1
26.1478     2
26.1603     2
26.1728     4
26.1853     5
26.1978     3
26.2103     3
26.2228     4
26.2353     3
26.2479     5
26.2604     7
26.2729     6
26.2854     3
26.2979     3
26.3104     5
26.3229     4
26.3354     4
26.3479     4
26.3604     2
26.3729     6
26.3854     3
26.3979     3
26.4104     4
 26.423     4
26.4355     1
 26.448     2
26.4605     2
 26.473     4
26.4855     4
 26.498     3
26.5105     4
 26.523     2
26.5355     2
 26.548     4
26.5605     3
 26.573     2
26.5855     2
26.5981     3
26.6106     2
26.6231     1
26.6356     1
26.6481     2
26.6606     1
26.6731     1
26.6856     5
26.6981     7
26.7106     3
26.7231     2
26.7356     4
26.7481     5
26.7606     1
26.7732     4
26.7857     0
26.7982     0
26.8107     0
26.8232     5
26.8357     1
26.8482     3
26.8607     2
26.8732     1
26.8857     4
26.8982     2
26.9107     4
26.9232     3
26.9358     3
26.9483     2
26.9608     6
26.9733     3
26.9858     2
26.9983     4
27.0108     3
27.0233     3
27.0358     5
27.0483     2
27.0608     1
27.0733     1
27.0858     0
27.0983     6
27.1109     2
27.1234     1
27.1359     3
27.1484     5
27.1609     2
27.1734     0
27.1859     3
27.1984     3
27.2109     3
27.2234     2
27.2359     2
27.2484     3
27.2609     5
27.2734     4
 27.286     2
27.2985     1
 27.311     2
27.3235     5
 27.336     3
27.3485     2
 27.361     1
27.3735     3
 27.386     3
27.3985     2
 27.411     3
27.4235     5
 27.436     2
27.4485     2
27.4611     5
27.4736     3
27.4861     2
27.4986     3
27.5111     2
27.5236     5
27.5361     1
27.5486     2
27.5611     3
27.5736     2
27.5861     2
27.5986     2
27.6111     1
27.6237     1
27.6362     4
27.6487     2
27.6612     3
27.6737     0
27.6862     1
27.6987     0
27.7112     2
27.7237     0
27.7362     2
27.7487     5
27.7612     1
27.7737     2
27.7862     1
27.7988     2
27.8113     1
27.8238     2
27.8363     3
27.8488     0
27.8613     3
27.8738     2
27.8863     4
27.8988     4
27.9113     2
27.9238     2
27.9363     0
27.9488     3
27.9613     4
27.9739     3
27.9864     4
27.9989     0
28.0114     1
28.0239     2
28.0364     2
28.0489     4
28.0614     3
28.0739     2
28.0864     2
28.0989     1
28.1114     3
28.1239     1
28.1364     2
 28.149     5
28.1615     1
 28.174     5
28.1865     2
 28.199     2
28.2115     2
 28.224     1
28.2365     3
 28.249     1
28.2615     4
 28.274     3
28.2865     0
 28.299     4
28.3116     3
28.3241     2
28.3366     2
28.3491     1
28.3616     0
28.3741     0
28.3866     2
28.3991     3
28.4116     2
28.4241     3
28.4366     5
28.4491     2
28.4616     3
28.4741     1
28.4867     4
28.4992     1
28.5117     1
28.5242     1
28.5367     4
28.5492     0
28.5617     2
28.5742     3
28.5867     3
28.5992     3
28.6117     1
28.6242     3
28.6367     1
28.6492     0
28.6618     3
28.6743     3
28.6868     2
28.6993     0
28.7118     1
28.7243     0
28.7368     1
28.7493     1
28.7618     2
28.7743     3
28.7868     1
28.7993     1
28.8118     1
28.8243     2
28.8369     5
28.8494     3
28.8619     1
28.8744     0
28.8869     6
28.8994     2
28.9119     2
28.9244     1
28.9369     1
28.9494     3
28.9619     3
28.9744     0
28.9869     2
28.9995     1
 29.012     2
29.0245     4
 29.037     1
29.0495     2
 29.062     5
29.0745     2
 29.087     2
29.0995     1
 29.112     3
29.1245     2
 29.137     1
29.1495     3
 29.162     5
29.1746     2
29.1871     2
29.1996     0
29.2121     3
29.2246     1
29.2371     1
29.2496     1
29.2621     2
29.2746     3
29.2871     3
29.2996     1
29.3121     3
29.3246     4
29.3371     1
29.3497     1
29.3622     1
29.3747     3
29.3872     3
29.3997     1
29.4122     3
29.4247     4
29.4372     0
29.4497     3
29.4622     1
29.4747     3
29.4872     3
29.4997     2
29.5123     1
29.5248     1
29.5373     3
29.5498     2
29.5623     6
29.5748     1
29.5873     4
29.5998     3
29.6123     1
29.6248     3
29.6373     2
29.6498     0
29.6623     4
29.6748     2
29.6874     1
29.6999     1
29.7124     1
29.7249     2
29.7374     2
29.7499     2
29.7624     2
29.7749     6
29.7874     2
29.7999     1
29.8124     2
29.8249     2
29.8374     3
29.8499     2
29.8625     0
 29.875     2
29.8875     2
   29.9     1
29.9125     0
 29.925     0
29.9375     0
  29.95     0
29.9625     0
 29.975     6
29.9875     2
     30     1
30.0125     4
 30.025     1
30.0376     1
30.0501     2
30.0626     3
30.0751     4
30.0876     1
30.1001     0
30.1126     1
30.1251     0
30.1376     0
30.1501     0
30.1626     0
30.1751     4
30.1876     3
30.2002     2
30.2127     0
30.2252     3
30.2377     2
30.2502     0
30.2627     0
30.2752     2
30.2877     2
30.3002     0
30.3127     0
30.3252     0
30.3377     0
30.3502     2
30.3627     3
30.3753     0
30.3878     1
30.4003     0
30.4128     6
30.4253     3
30.4378     1
30.4503     2
30.4628     0
30.4753     1
30.4878     2
30.5003     2
30.5128     4
30.5253     0
30.5378     1
30.5504     1
30.5629     0
30.5754     3
30.5879     2
30.6004     1
30.6129     2
30.6254     0
30.6379     0
30.6504     1
30.6629     3
30.6754     1
30.6879     0
30.7004     2
30.7129     0
30.7255     2
 30.738     4
30.7505     1
 30.763     0
30.7755     3
 30.788     2
30.8005     1
 30.813     1
30.8255     2
 30.838     0
30.8505     0
 30.863     1
30.8755     1
30.8881     0
30.9006     1
30.9131     0
30.9256     2
30.9381     1
30.9506     1
30.9631     3
30.9756     2
30.9881     1
31.0006     1
31.0131     0
31.0256     1
31.0381     0
31.0506     1
31.0632     1
31.0757     0
31.0882     0
31.1007     1
31.1132     0
31.1257     1
31.1382     0
31.1507     0
31.1632     1
31.1757     1
31.1882     0
31.2007     1
31.2132     1
31.2257     1
31.2383     2
31.2508     1
31.2633     2
31.2758     0
31.2883     0
31.3008     1
31.3133     0
31.3258     1
31.3383     2
31.3508     0
31.3633     2
31.3758     3
31.3883     2
31.4008     2
31.4134     1
31.4259     1
31.4384     1
31.4509     2
31.4634     2
31.4759     4
31.4884     1
31.5009     0
31.5134     1
31.5259     2
31.5384     2
31.5509     1
31.5634     2
 31.576     1
31.5885     0
 31.601     3
31.6135     2
 31.626     0
31.6385     2
 31.651     2
31.6635     3
 31.676     0
31.6885     0
 31.701     3
31.7135     1
 31.726     0
31.7385     3
31.7511     1
31.7636     0
31.7761     0
31.7886     1
31.8011     1
31.8136     2
31.8261     2
31.8386     2
31.8511     2
31.8636     0
31.8761     2
31.8886     0
31.9011     2
31.9136     0
31.9262     0
31.9387     1
31.9512     1
31.9637     4
31.9762     2
31.9887     1
32.0012     0
32.0137     1
32.0262     2
32.0387     1
32.0512     1
32.0637     2
32.0762     2
32.0887     1
32.1013     0
32.1138     0
32.1263     2
32.1388     1
32.1513     3
32.1638     0
32.1763     1
32.1888     1
32.2013     3
32.2138     0
32.2263     0
32.2388     2
32.2513     0
32.2639     0
32.2764     0
32.2889     1
32.3014     1
32.3139     1
32.3264     1
32.3389     1
32.3514     2
32.3639     0
32.3764     2
32.3889     1
32.4014     2
32.4139     2
32.4264     0
 32.439     3
32.4515     1
 32.464     2
32.4765     1
 32.489     0
32.5015     1
 32.514     4
32.5265     2
 32.539     1
32.5515     2
 32.564     2
32.5765     1
 32.589     3
32.6015     2
32.6141     3
32.6266     4
32.6391     0
32.6516     0
32.6641     0
32.6766     0
32.6891     1
32.7016     0
32.7141     2
32.7266     1
32.7391     0
32.7516     3
32.7641     2
32.7766     1
32.7892     2
32.8017     4
32.8142     0
32.8267     3
32.8392     3
32.8517     3
32.8642     1
32.8767     1
32.8892     2
32.9017     3
32.9142     1
32.9267     0
32.9392     3
32.9518     1
32.9643     2
32.9768     1
32.9893     0
33.0018     0
33.0143     2
33.0268     0
33.0393     3
33.0518     1
33.0643     1
33.0768     2
33.0893     0
33.1018     0
33.1143     0
33.1269     1
33.1394     0
33.1519     1
33.1644     1
33.1769     1
33.1894     3
33.2019     0
33.2144     1
33.2269     0
33.2394     0
33.2519     3
33.2644     1
33.2769     1
33.2894     2
 33.302     3
33.3145     0
 33.327     1
33.3395     1
 33.352     0
33.3645     2
 33.377     2
33.3895     0
 33.402     1
33.4145     1
 33.427     1
33.4395     1
 33.452     2
33.4645     2
33.4771     1
33.4896     1
33.5021     2
33.5146     0
33.5271     2
33.5396     0
33.5521     2
33.5646     0
33.5771     1
33.5896     3
33.6021     0
33.6146     1
33.6271     1
33.6397     1
33.6522     0
33.6647     1
33.6772     0
33.6897     0
33.7022     1
33.7147     1
33.7272     2
33.7397     0
33.7522     1
33.7647     1
33.7772     0
33.7897     1
33.8022     4
33.8148     1
33.8273     3
33.8398     2
33.8523     1
33.8648     1
33.8773     1
33.8898     0
33.9023     0
33.9148     0
33.9273     1
33.9398     1
33.9523     0
33.9648     1
33.9773     1
33.9899     1
34.0024     0
34.0149     1
34.0274     0
34.0399     0
34.0524     1
34.0649     0
34.0774     2
34.0899     1
34.1024     2
34.1149     1
34.1274     0
34.1399     1
34.1524     1
 34.165     0
34.1775     0
  34.19     0
34.2025     2
 34.215     1
34.2275     1
  34.24     0
34.2525     0
 34.265     3
34.2775     1
  34.29     1
34.3025     1
 34.315     1
34.3276     1
34.3401     1
34.3526     0
34.3651     1
34.3776     1
34.3901     1
34.4026     2
34.4151     1
34.4276     1
34.4401     2
34.4526     0
34.4651     0
34.4776     1
34.4901     2
34.5027     2
34.5152     2
34.5277     0
34.5402     1
34.5527     2
34.5652     2
34.5777     1
34.5902     0
34.6027     1
34.6152     1
34.6277     1
34.6402     1
34.6527     0
34.6652     3
34.6778     0
34.6903     0
34.7028     0
34.7153     0
34.7278     0
34.7403     2
34.7528     1
34.7653     0
34.7778     0
34.7903     1
34.8028     1
34.8153     1
34.8278     1
34.8403     1
34.8529     1
34.8654     2
34.8779     0
34.8904     3
34.9029     1
34.9154     0
34.9279     0
34.9404     0
34.9529     1
34.9654     0
34.9779     1
34.9904     0
35.0029     0
35.0155     0
 35.028     1
35.0405     0
 35.053     0
35.0655     0
 35.078     0
35.0905     1
 35.103     1
35.1155     1
 35.128     0
35.1405     0
 35.153     1
35.1655     1
 35.178     2
35.1906     0
35.2031     0
35.2156     1
35.2281     0
35.2406     0
35.2531     0
35.2656     0
35.2781     0
35.2906     0
35.3031     0
35.3156     0
35.3281     1
35.3406     0
35.3531     1
35.3657     0
35.3782     0
35.3907     0
35.4032     0
35.4157     0
35.4282     0
35.4407     0
35.4532     0
35.4657     1
35.4782     0
35.4907     0
35.5032     2
35.5157     1
35.5282     1
35.5408     0
35.5533     1
35.5658     0
35.5783     1
35.5908     0
35.6033     1
35.6158     0
35.6283     0
35.6408     0
35.6533     0
35.6658     0
35.6783     0
35.6908     1
35.7034     1
35.7159     0
35.7284     2
35.7409     0
35.7534     0
35.7659     0
35.7784     1
35.7909     0
35.8034     1
35.8159     1
35.8284     0
35.8409     1
35.8534     0
35.8659     0
35.8785     0
 35.891     0
35.9035     0
 35.916     0
35.9285     2
 35.941     0
35.9535     1
 35.966     1
35.9785     0
 35.991     0
36.0035     0
 36.016     1
36.0285     0
 36.041     0
36.0536     0
36.0661     0
36.0786     0
36.0911     0
36.1036     0
36.1161     0
36.1286     1
36.1411     1
36.1536     0
36.1661     0
36.1786     0
36.1911     1
36.2036     0
36.2161     1
36.2287     1
36.2412     0
36.2537     1
36.2662     0
36.2787     1
36.2912     0
36.3037     0
36.3162     0
36.3287     0
36.3412     0
36.3537     0
36.3662     0
36.3787     0
36.3913     0
36.4038     1
36.4163     0
36.4288     0
36.4413     1
36.4538     2
36.4663     1
36.4788     0
36.4913     0
36.5038     0
36.5163     1
36.5288     1
36.5413     0
36.5538     0
36.5664     0
36.5789     0
36.5914     0
36.6039     0
36.6164     0
36.6289     0
36.6414     0
36.6539     1
36.6664     2
36.6789     1
36.6914     0
36.7039     0
36.7164     0
36.7289     0
36.7415     0
 36.754     0
36.7665     0
 36.779     0
36.7915     1
 36.804     1
36.8165     1
 36.829     1
36.8415     0
 36.854     0
36.8665     0
 36.879     0
36.8915     0
 36.904     2
36.9166     0
36.9291     0
36.9416     1
36.9541     0
36.9666     1
36.9791     0
36.9916     0
37.0041     0
37.0166     2
37.0291     2
37.0416     0
37.0541     1
37.0666     0
37.0792     0
37.0917     0
37.1042     0
37.1167     0
37.1292     0
37.1417     2
37.1542     0
37.1667     0
37.1792     0
37.1917     0
37.2042     0
37.2167     2
37.2292     1
37.2417     0
37.2543     2
37.2668     0
37.2793     0
37.2918     0
37.3043     1
37.3168     0
37.3293     1
37.3418     0
37.3543     0
37.3668     1
37.3793     0
37.3918     0
37.4043     0
37.4168     0
37.4294     0
37.4419     0
37.4544     0
37.4669     0
37.4794     1
37.4919     0
37.5044     0
37.5169     0
37.5294     1
37.5419     1
37.5544     1
37.5669     0
37.5794     1
37.5919     0
37.6045     1
 37.617     1
37.6295     1
 37.642     1
37.6545     0
 37.667     0
37.6795     0
 37.692     0
37.7045     0
 37.717     0
37.7295     0
 37.742     0
37.7545     0
37.7671     2
37.7796     1
37.7921     0
37.8046     0
37.8171     1
37.8296     1
37.8421     0
37.8546     0
37.8671     0
37.8796     0
37.8921     0
37.9046     0
37.9171     0
37.9296     0
37.9422     0
37.9547     0
37.9672     0
37.9797     0
37.9922     0
38.0047     1
38.0172     0
38.0297     0
38.0422     0
38.0547     0
38.0672     0
38.0797     0
38.0922     0
38.1047     1
38.1173     0
38.1298     0
38.1423     0
38.1548     1
38.1673     0
38.1798     1
38.1923     0
38.2048     1
38.2173     0
38.2298     0
38.2423     0
38.2548     1
38.2673     0
38.2798     1
38.2924     0
38.3049     1
38.3174     0
38.3299     0
38.3424     0
38.3549     0
38.3674     0
38.3799     0
38.3924     1
38.4049     1
38.4174     0
38.4299     0
38.4424     0
 38.455     0
38.4675     0
  38.48     0
38.4925     0
 38.505     0
38.5175     0
  38.53     0
38.5425     0
 38.555     0
38.5675     0
  38.58     0
38.5925     0
 38.605     0
38.6175     1
38.6301     1
38.6426     0
38.6551     0
38.6676     0
38.6801     1
38.6926     1
38.7051     0
38.7176     0
38.7301     0
38.7426     1
38.7551     0
38.7676     0
38.7801     0
38.7926     0
38.8052     0
38.8177     0
38.8302     0
38.8427     0
38.8552     0
38.8677     0
38.8802     1
38.8927     0
38.9052     0
38.9177     0
38.9302     1
38.9427     0
38.9552     0
38.9677     0
38.9803     1
38.9928     0
39.0053     0
39.0178     0
39.0303     0
39.0428     0
39.0553     0
39.0678     0
39.0803     0
39.0928     0
39.1053     0
39.1178     0
39.1303     0
39.1429     0
39.1554     0
39.1679     0
39.1804     0
39.1929     0
39.2054     1
39.2179     1
39.2304     0
39.2429     1
39.2554     0
39.2679     0
39.2804     1
39.2929     0
39.3054     0
 39.318     1
39.3305     1
 39.343     1
39.3555     0
 39.368     0
39.3805     0
 39.393     1
39.4055     0
 39.418     1
39.4305     0
 39.443     1
39.4555     0
 39.468     1
39.4805     0
39.4931     0
39.5056     0
39.5181     0
39.5306     0
39.5431     0
39.5556     0
39.5681     1
39.5806     0
39.5931     0
39.6056     0
39.6181     0
39.6306     0
39.6431     1
39.6556     0
39.6682     0
39.6807     1
39.6932     1
39.7057     0
39.7182     0
39.7307     0
39.7432     0
39.7557     1
39.7682     0
39.7807     0
39.7932     0
39.8057     0
39.8182     1
39.8308     0
39.8433     0
39.8558     0
39.8683     0
39.8808     1
39.8933     0
39.9058     0
39.9183     0
39.9308     0
39.9433     1
39.9558     0
39.9683     0
39.9808     0
39.9933     0
40.0059     0
40.0184     0
40.0309     0
40.0434     0
40.0559     0
40.0684     0
40.0809     0
40.0934     0
40.1059     0
40.1184     0
40.1309     1
40.1434     0
40.1559     0
40.1684     0
 40.181     0
40.1935     0
 40.206     0
40.2185     0
 40.231     0
40.2435     0
 40.256     0
40.2685     0
 40.281     1
40.2935     0
 40.306     0
40.3185     0
 40.331     0
40.3435     1
40.3561     0
40.3686     0
40.3811     0
40.3936     1
40.4061     0
40.4186     1
40.4311     0
40.4436     0
40.4561     0
40.4686     0
40.4811     1
40.4936     0
40.5061     0
40.5187     0
40.5312     0
40.5437     0
40.5562     0
40.5687     0
40.5812     1
40.5937     0
40.6062     0
40.6187     0
40.6312     0
40.6437     0
40.6562     1
40.6687     0
40.6812     1
40.6938     2
40.7063     1
40.7188     0
40.7313     0
40.7438     0
40.7563     1
40.7688     0
40.7813     0
40.7938     0
40.8063     0
40.8188     0
40.8313     0
40.8438     0
40.8563     0
40.8689     1
40.8814     0
40.8939     0
40.9064     1
40.9189     0
40.9314     1
40.9439     1
40.9564     0
40.9689     0
40.9814     0
40.9939     0
41.0064     0
41.0189     0
41.0314     0
 41.044     0
41.0565     0
 41.069     0
41.0815     1
 41.094     0
41.1065     0
 41.119     1
41.1315     1
 41.144     0
41.1565     2
 41.169     0
41.1815     0
 41.194     0
41.2066     0
41.2191     0
41.2316     1
41.2441     0
41.2566     1
41.2691     0
41.2816     0
41.2941     0
41.3066     0
41.3191     0
41.3316     0
41.3441     1
41.3566     0
41.3691     0
41.3817     0
41.3942     0
41.4067     0
41.4192     0
41.4317     0
41.4442     0
41.4567     0
41.4692     0
41.4817     0
41.4942     0
41.5067     0
41.5192     0
41.5317     0
41.5442     0
41.5568     0
41.5693     0
41.5818     0
41.5943     0
41.6068     0
41.6193     0
41.6318     0
41.6443     0
41.6568     0
41.6693     0
41.6818     0
41.6943     0
41.7068     0
41.7193     0
41.7319     0
41.7444     0
41.7569     0
41.7694     0
41.7819     0
41.7944     0
41.8069     0
41.8194     1
41.8319     0
41.8444     0
41.8569     0
41.8694     0
41.8819     0
41.8945     0
 41.907     0
41.9195     0
 41.932     0
41.9445     0
 41.957     0
41.9695     0
 41.982     0
41.9945     0
 42.007     0
42.0195     0
 42.032     0
42.0445     0
 42.057     0
42.0696     0
42.0821     0
42.0946     0
42.1071     0
42.1196     0
42.1321     0
42.1446     0
42.1571     0
42.1696     0
42.1821     0
42.1946     0
42.2071     1
42.2196     0
42.2321     0
42.2447     0
42.2572     0
42.2697     0
42.2822     0
42.2947     0
42.3072     0
42.3197     0
42.3322     0
42.3447     1
42.3572     0
42.3697     0
42.3822     0
42.3947     0
42.4072     1
42.4198     0
42.4323     0
42.4448     0
42.4573     0
42.4698     0
42.4823     0
42.4948     0
42.5073     0
42.5198     0
42.5323     0
42.5448     0
42.5573     1
42.5698     0
42.5824     0
42.5949     0
42.6074     0
42.6199     0
42.6324     0
42.6449     0
42.6574     0
42.6699     0
42.6824     0
42.6949     0
42.7074     1
42.7199     0
42.7324     0
42.7449     0
42.7575     0
  42.77     0
42.7825     1
 42.795     0
42.8075     0
  42.82     0
42.8325     0
 42.845     0
42.8575     1
  42.87     0
42.8825     0
 42.895     1
42.9075     0
  42.92     0
42.9326     0
42.9451     0
42.9576     0
42.9701     0
42.9826     0
42.9951     0
43.0076     0
43.0201     0
43.0326     0
43.0451     0
43.0576     0
43.0701     0
43.0826     0
43.0951     0
43.1077     0
43.1202     1
43.1327     0
43.1452     0
43.1577     0
43.1702     0
43.1827     0
43.1952     0
43.2077     0
43.2202     0
43.2327     0
43.2452     0
43.2577     0
43.2703     0
43.2828     0
43.2953     0
43.3078     0
43.3203     0
43.3328     0
43.3453     0
43.3578     0
43.3703     0
43.3828     0
43.3953     0
43.4078     0
43.4203     0
43.4328     0
43.4454     0
43.4579     0
43.4704     0
43.4829     0
43.4954     0
43.5079     0
43.5204     0
43.5329     0
43.5454     0
43.5579     0
43.5704     0
43.5829     0
43.5954     0
43.6079     0
43.6205     0
 43.633     0
43.6455     0
 43.658     0
43.6705     0
 43.683     0
43.6955     0
 43.708     0
43.7205     0
 43.733     0
43.7455     0
 43.758     0
43.7705     0
 43.783     0
43.7956     0
43.8081     0
43.8206     0
43.8331     0
43.8456     0
43.8581     0
43.8706     0
43.8831     0
43.8956     0
43.9081     0
43.9206     0
43.9331     0
43.9456     0
43.9582     0
43.9707     0
43.9832     0
43.9957     0
44.0082     0
44.0207     0
44.0332     0
44.0457     0
44.0582     0
44.0707     0
44.0832     0
44.0957     0
44.1082     0
44.1207     0
44.1333     0
44.1458     0
44.1583     0
44.1708     0
44.1833     0
44.1958     0
44.2083     0
44.2208     0
44.2333     0
44.2458     0
44.2583     0
44.2708     0
44.2833     0
44.2958     0
44.3084     0
44.3209     0
44.3334     0
44.3459     0
44.3584     0
44.3709     0
44.3834     0
44.3959     0
44.4084     0
44.4209     0
44.4334     0
44.4459     0
44.4584     0
44.4709     0
44.4835     0
 44.496     0
44.5085     0
 44.521     0
44.5335     0
 44.546     0
44.5585     0
 44.571     0
44.5835     0
 44.596     0
44.6085     1
 44.621     0
44.6335     0
44.6461     0
44.6586     0
44.6711     0
44.6836     0
44.6961     0
44.7086     0
44.7211     0
44.7336     0
44.7461     0
44.7586     0
44.7711     0
44.7836     0
44.7961     0
44.8086     0
44.8212     0
44.8337     0
44.8462     0
44.8587     0
44.8712     0
44.8837     0
44.8962     0
44.9087     0
44.9212     0
44.9337     0
44.9462     0
44.9587     0
44.9712     0
44.9837     0
44.9963     0
45.0088     0
45.0213     0
45.0338     0
45.0463     0
45.0588     0
45.0713     0
45.0838     0
45.0963     0
45.1088     0
45.1213     0
45.1338     0
45.1463     0
45.1588     0
45.1714     0
45.1839     0
45.1964     0
45.2089     0
45.2214     0
45.2339     0
45.2464     0
45.2589     0
45.2714     0
45.2839     1
45.2964     0
45.3089     0
45.3214     0
 45.334     0
45.3465     0
 45.359     0
45.3715     0
 45.384     0
45.3965     0
 45.409     0
45.4215     0
 45.434     0
45.4465     0
 45.459     0
45.4715     0
 45.484     0
45.4965     0
45.5091     0
45.5216     0
45.5341     0
45.5466     0
45.5591     0
45.5716     0
45.5841     0
45.5966     0
45.6091     0
45.6216     0
45.6341     0
45.6466     0
45.6591     0
45.6716     0
45.6842     0
45.6967     0
45.7092     0
45.7217     0
45.7342     0
45.7467     0
45.7592     0
45.7717     0
45.7842     0
45.7967     0
45.8092     0
45.8217     0
45.8342     0
45.8467     0
45.8593     0
45.8718     0
45.8843     0
45.8968     0
45.9093     0
45.9218     0
45.9343     0
45.9468     0
45.9593     0
45.9718     0
45.9843     0
45.9968     0
46.0093     0
46.0219     0
46.0344     0
46.0469     0
46.0594     0
46.0719     0
46.0844     0
46.0969     0
46.1094     0
46.1219     0
46.1344     0
46.1469     0
46.1594     0
46.1719     0
46.1844     0
 46.197     0
46.2095     0
 46.222     0
46.2345     0
 46.247     0
46.2595     0
 46.272     0
46.2845     0
 46.297     1
46.3095     0
 46.322     0
46.3345     0
 46.347     0
46.3595     0
46.3721     0
46.3846     0
46.3971     0
46.4096     0
46.4221     0
46.4346     0
46.4471     0
46.4596     0
46.4721     0
46.4846     0
46.4971     0
46.5096     0
46.5221     0
46.5346     0
46.5472     0
46.5597     0
46.5722     0
46.5847     0
46.5972     0
46.6097     0
46.6222     0
46.6347     0
46.6472     0
46.6597     0
46.6722     0
46.6847     0
46.6972     0
46.7098     0
46.7223     0
46.7348     0
46.7473     0
46.7598     0
46.7723     0
46.7848     0
46.7973     0
46.8098     0
46.8223     0
46.8348     0
46.8473     0
46.8598     0
46.8723     0
46.8849     0
46.8974     0
46.9099     0
46.9224     0
46.9349     0
46.9474     0
46.9599     0
46.9724     0
46.9849     0
46.9974     0
47.0099     0
47.0224     0
47.0349     0
47.0474     0
  47.06     0
47.0725     0
 47.085     0
47.0975     0
  47.11     0
47.1225     0
 47.135     0
47.1475     0
  47.16     0
47.1725     0
 47.185     0
47.1975     0
  47.21     0
47.2225     0
47.2351     0
47.2476     0
47.2601     0
47.2726     0
47.2851     0
47.2976     0
47.3101     0
47.3226     0
47.3351     0
47.3476     0
47.3601     0
47.3726     0
47.3851     0
47.3977     0
47.4102     0
47.4227     0
47.4352     0
47.4477     0
47.4602     0
47.4727     0
47.4852     0
47.4977     0
47.5102     0
47.5227     0
47.5352     0
47.5477     0
47.5602     0
47.5728     0
47.5853     0
47.5978     0
47.6103     0
47.6228     0
47.6353     0
47.6478     0
47.6603     0
47.6728     0
47.6853     0
47.6978     0
47.7103     0
47.7228     0
47.7353     0
47.7479     0
47.7604     0
47.7729     0
47.7854     0
47.7979     0
47.8104     1
47.8229     0
47.8354     0
47.8479     0
47.8604     0
47.8729     0
47.8854     0
47.8979     0
47.9104     0
 47.923     0
47.9355     0
 47.948     0
47.9605     0
 47.973     0
47.9855     0
 47.998     0
48.0105     0
 48.023     0
48.0355     0
 48.048     0
48.0605     0
 48.073     0
48.0856     0
48.0981     0
48.1106     0
48.1231     0
48.1356     0
48.1481     0
48.1606     0
48.1731     0
48.1856     0
48.1981     0
48.2106     0
48.2231     0
48.2356     0
48.2481     0
48.2607     0
48.2732     0
48.2857     0
48.2982     0
48.3107     0
48.3232     0
48.3357     0
48.3482     0
48.3607     0
48.3732     0
48.3857     0
48.3982     0
48.4107     0
48.4232     0
48.4358     0
48.4483     0
48.4608     0
48.4733     0
48.4858     0
48.4983     0
48.5108     0
48.5233     0
48.5358     0
48.5483     0
48.5608     0
48.5733     0
48.5858     0
48.5983     0
48.6109     0
48.6234     0
48.6359     0
48.6484     0
48.6609     0
48.6734     0
48.6859     0
48.6984     0
48.7109     0
48.7234     0
48.7359     0
48.7484     0
48.7609     0
48.7735     0
 48.786     0
48.7985     0
 48.811     0
48.8235     0
 48.836     0
48.8485     0
 48.861     0
48.8735     0
 48.886     0
48.8985     0
 48.911     0
48.9235     0
 48.936     0
48.9486     0
48.9611     0
48.9736     0
48.9861     0
48.9986     0
49.0111     0
49.0236     0
49.0361     0
49.0486     0
49.0611     0
49.0736     0
49.0861     0
49.0986     0
49.1111     0
49.1237     0
49.1362     0
49.1487     0
49.1612     0
49.1737     0
49.1862     0
49.1987     0
49.2112     0
49.2237     0
49.2362     0
49.2487     0
49.2612     0
49.2737     0
49.2862     0
49.2988     0
49.3113     0
49.3238     0
49.3363     0
49.3488     0
49.3613     0
49.3738     0
49.3863     0
49.3988     0
49.4113     0
49.4238     0
49.4363     0
49.4488     0
49.4614     0
49.4739     0
49.4864     0
49.4989     0
49.5114     0
49.5239     0
49.5364     0
49.5489     0
49.5614     0
49.5739     0
49.5864     0
49.5989     0
49.6114     0
49.6239     0
49.6365     0
 49.649     0
49.6615     0
 49.674     0
49.6865     0
 49.699     0
49.7115     0
 49.724     0
49.7365     0
 49.749     0
49.7615     0
 49.774     0
49.7865     0
 49.799     0
49.8116     0
49.8241     0
49.8366     0
49.8491     0
49.8616     0
49.8741     0
49.8866     0
49.8991     0
49.9116     0
49.9241     0
49.9366     0
49.9491     0
49.9616     0
49.9741     0
49.9867     0
49.9992     0
50.0117     0
50.0242     0
