RÖNTEC GmbH Berlin, Germany
Quantax 1.2

Date: 3/3/2015 12:59:42 PM
Real time: 61008
Life time: 60002
Pulse density: 7078


Detector type: XFLASH 3001
Window type: 
Detector thickness: 0.45
Si dead layer:0

Calibration, lin.: 12.507
Calibration, abs.: -1193.107
Mn FWHM: 142.37
Fano factor: 0.105
Channels: 4096

Energy Counts
-1.1931     0
-1.1806     0
-1.1681     0
-1.1556     0
-1.1431     0
-1.1306     0
-1.1181     0
-1.1056     0
 -1.093     0
-1.0805     0
 -1.068     0
-1.0555     0
 -1.043     0
-1.0305     0
 -1.018     0
-1.0055     0
 -0.993     0
-0.9805     0
 -0.968     0
-0.9555     0
 -0.943     0
-0.9305     0
-0.9179     0
-0.9054     0
-0.8929     0
-0.8804     0
-0.8679     0
-0.8554     0
-0.8429     0
-0.8304     0
-0.8179     0
-0.8054     0
-0.7929     0
-0.7804     0
-0.7679     0
-0.7554     0
-0.7428     0
-0.7303     0
-0.7178     0
-0.7053     0
-0.6928     0
-0.6803     0
-0.6678     0
-0.6553     0
-0.6428     0
-0.6303     0
-0.6178     0
-0.6053     0
-0.5928     0
-0.5803     0
-0.5677     0
-0.5552     0
-0.5427     0
-0.5302     0
-0.5177     0
-0.5052     0
-0.4927     0
-0.4802     0
-0.4677     0
-0.4552     0
-0.4427     0
-0.4302     0
-0.4177     0
-0.4051     0
-0.3926     0
-0.3801     0
-0.3676     0
-0.3551     0
-0.3426     0
-0.3301     0
-0.3176     0
-0.3051     0
-0.2926     0
-0.2801     0
-0.2676     0
-0.2551     0
-0.2426     0
  -0.23     0
-0.2175     0
 -0.205     0
-0.1925     0
  -0.18     0
-0.1675     0
 -0.155     2
-0.1425     1
  -0.13    13
-0.1175    57
 -0.105   242
-0.0925   881
  -0.08  2543
-0.0675  6198
-0.0549 13678
-0.0424 25796
-0.0299 42589
-0.0174 61694
-0.0049 78601
 0.0076 87423
 0.0201 84495
 0.0326 71604
 0.0451 53673
 0.0576 34336
 0.0701 18935
 0.0826  9499
 0.0951  4152
 0.1076  1638
 0.1202   523
 0.1327   165
 0.1452    37
 0.1577    16
 0.1702     6
 0.1827     0
 0.1952     1
 0.2077     1
 0.2202     2
 0.2327     0
 0.2452     2
 0.2577     3
 0.2702     1
 0.2828     0
 0.2953     1
 0.3078     1
 0.3203     0
 0.3328     0
 0.3453     0
 0.3578     0
 0.3703     0
 0.3828     0
 0.3953     0
 0.4078     0
 0.4203     0
 0.4328     5
 0.4453    17
 0.4579    50
 0.4704    46
 0.4829    42
 0.4954    43
 0.5079    43
 0.5204    40
 0.5329    46
 0.5454    27
 0.5579    52
 0.5704    57
 0.5829    43
 0.5954    40
 0.6079    46
 0.6204    42
  0.633    44
 0.6455    46
  0.658    40
 0.6705    38
  0.683    43
 0.6955    33
  0.708    36
 0.7205    57
  0.733    38
 0.7455    36
  0.758    36
 0.7705    35
  0.783    38
 0.7955    32
 0.8081    25
 0.8206    43
 0.8331    34
 0.8456    21
 0.8581    25
 0.8706    33
 0.8831    22
 0.8956    28
 0.9081    30
 0.9206    28
 0.9331    38
 0.9456    21
 0.9581    23
 0.9707    19
 0.9832    23
 0.9957    19
 1.0082    29
 1.0207    20
 1.0332    22
 1.0457    18
 1.0582    27
 1.0707    23
 1.0832    27
 1.0957    29
 1.1082    28
 1.1207    20
 1.1332    21
 1.1458    26
 1.1583    26
 1.1708    28
 1.1833    18
 1.1958    16
 1.2083    23
 1.2208    17
 1.2333    25
 1.2458    30
 1.2583    26
 1.2708    20
 1.2833    23
 1.2958    24
 1.3083    17
 1.3209    24
 1.3334    20
 1.3459    15
 1.3584    27
 1.3709    20
 1.3834    19
 1.3959    15
 1.4084    27
 1.4209    15
 1.4334    18
 1.4459    17
 1.4584    29
 1.4709    22
 1.4834    21
  1.496    23
 1.5085    15
  1.521    21
 1.5335    19
  1.546    24
 1.5585    18
  1.571    17
 1.5835    20
  1.596    23
 1.6085    21
  1.621    18
 1.6335    16
  1.646    14
 1.6586    16
 1.6711    33
 1.6836    20
 1.6961    30
 1.7086    26
 1.7211    16
 1.7336    27
 1.7461    33
 1.7586    28
 1.7711    35
 1.7836    31
 1.7961    26
 1.8086    30
 1.8211    37
 1.8337    35
 1.8462    33
 1.8587    39
 1.8712    30
 1.8837    29
 1.8962    19
 1.9087    21
 1.9212    26
 1.9337    22
 1.9462    23
 1.9587    25
 1.9712    27
 1.9837    27
 1.9962    26
 2.0088    23
 2.0213    25
 2.0338    17
 2.0463    21
 2.0588    19
 2.0713    17
 2.0838    17
 2.0963    21
 2.1088    28
 2.1213    42
 2.1338    32
 2.1463    40
 2.1588    33
 2.1713    55
 2.1839    56
 2.1964    76
 2.2089    64
 2.2214    86
 2.2339    86
 2.2464   112
 2.2589   113
 2.2714   143
 2.2839   188
 2.2964   279
 2.3089   344
 2.3214   466
 2.3339   524
 2.3465   611
  2.359   665
 2.3715   645
  2.384   695
 2.3965   687
  2.409   618
 2.4215   602
  2.434   635
 2.4465   585
  2.459   554
 2.4715   508
  2.484   447
 2.4965   400
  2.509   296
 2.5216   247
 2.5341   161
 2.5466   130
 2.5591    99
 2.5716    79
 2.5841    55
 2.5966    49
 2.6091    52
 2.6216    73
 2.6341    64
 2.6466    53
 2.6591    77
 2.6716    74
 2.6841    66
 2.6967    51
 2.7092    53
 2.7217    46
 2.7342    40
 2.7467    35
 2.7592    35
 2.7717    37
 2.7842    29
 2.7967    23
 2.8092    21
 2.8217    26
 2.8342    21
 2.8467    20
 2.8592    16
 2.8718    26
 2.8843    27
 2.8968    28
 2.9093    32
 2.9218    36
 2.9343    49
 2.9468    44
 2.9593    55
 2.9718    34
 2.9843    52
 2.9968    33
 3.0093    50
 3.0218    48
 3.0344    39
 3.0469    39
 3.0594    46
 3.0719    45
 3.0844    43
 3.0969    44
 3.1094    44
 3.1219    35
 3.1344    48
 3.1469    40
 3.1594    36
 3.1719    39
 3.1844    43
 3.1969    34
 3.2095    41
  3.222    36
 3.2345    33
  3.247    32
 3.2595    33
  3.272    42
 3.2845    41
  3.297    36
 3.3095    58
  3.322    48
 3.3345    32
  3.347    41
 3.3595    38
  3.372    36
 3.3846    29
 3.3971    23
 3.4096    31
 3.4221    27
 3.4346    23
 3.4471    29
 3.4596    18
 3.4721    10
 3.4846    18
 3.4971    24
 3.5096    18
 3.5221    30
 3.5346    22
 3.5471    17
 3.5597    36
 3.5722    29
 3.5847    30
 3.5972    45
 3.6097    55
 3.6222    67
 3.6347    70
 3.6472   109
 3.6597    92
 3.6722   119
 3.6847   136
 3.6972   155
 3.7097   157
 3.7223   149
 3.7348   109
 3.7473   109
 3.7598    91
 3.7723    82
 3.7848    45
 3.7973    34
 3.8098    35
 3.8223    29
 3.8348    21
 3.8473    28
 3.8598    13
 3.8723    18
 3.8848    22
 3.8974    21
 3.9099    12
 3.9224    16
 3.9349    25
 3.9474    14
 3.9599    27
 3.9724    28
 3.9849    32
 3.9974    26
 4.0099    32
 4.0224    38
 4.0349    44
 4.0474    53
 4.0599    33
 4.0725    25
  4.085    23
 4.0975    14
   4.11    14
 4.1225    24
  4.135    16
 4.1475    23
   4.16    17
 4.1725    17
  4.185    14
 4.1975    15
   4.21    16
 4.2225    21
  4.235    13
 4.2476    11
 4.2601    12
 4.2726    16
 4.2851    18
 4.2976    19
 4.3101    15
 4.3226    14
 4.3351    16
 4.3476    17
 4.3601    12
 4.3726    18
 4.3851    18
 4.3976    16
 4.4102    23
 4.4227    27
 4.4352    29
 4.4477    25
 4.4602    34
 4.4727    24
 4.4852    32
 4.4977    44
 4.5102    47
 4.5227    35
 4.5352    44
 4.5477    29
 4.5602    27
 4.5727    32
 4.5853    30
 4.5978    35
 4.6103    28
 4.6228    31
 4.6353    40
 4.6478    23
 4.6603    28
 4.6728    29
 4.6853    28
 4.6978    37
 4.7103    23
 4.7228    40
 4.7353    24
 4.7478    18
 4.7604    24
 4.7729    32
 4.7854    21
 4.7979    24
 4.8104    18
 4.8229    18
 4.8354    15
 4.8479    26
 4.8604    21
 4.8729    23
 4.8854    16
 4.8979    20
 4.9104    22
 4.9229    21
 4.9355    20
  4.948    27
 4.9605    21
  4.973    19
 4.9855    20
  4.998    17
 5.0105    19
  5.023    22
 5.0355    22
  5.048    23
 5.0605    19
  5.073    16
 5.0855    21
 5.0981    23
 5.1106    23
 5.1231    26
 5.1356    19
 5.1481    27
 5.1606    24
 5.1731    15
 5.1856    19
 5.1981    17
 5.2106    19
 5.2231    27
 5.2356    24
 5.2481    22
 5.2606    26
 5.2732    21
 5.2857    32
 5.2982    21
 5.3107    21
 5.3232    25
 5.3357    24
 5.3482    32
 5.3607    29
 5.3732    24
 5.3857    31
 5.3982    33
 5.4107    24
 5.4232    26
 5.4357    24
 5.4483    33
 5.4608    23
 5.4733    30
 5.4858    23
 5.4983    21
 5.5108    27
 5.5233    28
 5.5358    27
 5.5483    29
 5.5608    22
 5.5733    30
 5.5858    20
 5.5983    24
 5.6108    21
 5.6234    23
 5.6359    18
 5.6484    33
 5.6609    30
 5.6734    27
 5.6859    23
 5.6984    19
 5.7109    26
 5.7234    29
 5.7359    30
 5.7484    42
 5.7609    26
 5.7734    32
  5.786    32
 5.7985    29
  5.811    37
 5.8235    36
  5.836    28
 5.8485    38
  5.861    32
 5.8735    41
  5.886    40
 5.8985    37
  5.911    36
 5.9235    55
  5.936    43
 5.9485    38
 5.9611    25
 5.9736    44
 5.9861    42
 5.9986    33
 6.0111    35
 6.0236    34
 6.0361    41
 6.0486    30
 6.0611    32
 6.0736    38
 6.0861    50
 6.0986    32
 6.1111    33
 6.1236    44
 6.1362    23
 6.1487    38
 6.1612    38
 6.1737    64
 6.1862    57
 6.1987    70
 6.2112    84
 6.2237    95
 6.2362   131
 6.2487   184
 6.2612   297
 6.2737   413
 6.2862   592
 6.2988   830
 6.3113  1105
 6.3238  1453
 6.3363  1773
 6.3488  2244
 6.3613  2623
 6.3738  2776
 6.3863  3165
 6.3988  3019
 6.4113  3060
 6.4238  2963
 6.4363  2839
 6.4488  2493
 6.4613  2142
 6.4739  1761
 6.4864  1377
 6.4989  1064
 6.5114   759
 6.5239   572
 6.5364   342
 6.5489   265
 6.5614   188
 6.5739   132
 6.5864    86
 6.5989    48
 6.6114    59
 6.6239    40
 6.6364    56
  6.649    52
 6.6615    48
  6.674    45
 6.6865    41
  6.699    40
 6.7115    34
  6.724    38
 6.7365    35
  6.749    37
 6.7615    34
  6.774    37
 6.7865    45
  6.799    43
 6.8115    44
 6.8241    46
 6.8366    53
 6.8491    54
 6.8616    54
 6.8741    75
 6.8866    74
 6.8991    80
 6.9116    95
 6.9241   111
 6.9366   130
 6.9491   160
 6.9616   226
 6.9741   275
 6.9867   290
 6.9992   354
 7.0117   394
 7.0242   443
 7.0367   455
 7.0492   490
 7.0617   521
 7.0742   550
 7.0867   406
 7.0992   443
 7.1117   409
 7.1242   290
 7.1367   267
 7.1492   241
 7.1618   186
 7.1743   124
 7.1868   108
 7.1993    89
 7.2118    89
 7.2243    57
 7.2368    42
 7.2493    57
 7.2618    65
 7.2743    51
 7.2868    53
 7.2993    61
 7.3118    53
 7.3243    54
 7.3369    76
 7.3494    64
 7.3619    73
 7.3744    67
 7.3869    79
 7.3994    70
 7.4119    63
 7.4244    83
 7.4369    63
 7.4494    84
 7.4619    65
 7.4744    75
 7.4869    80
 7.4994    58
  7.512    52
 7.5245    59
  7.537    52
 7.5495    49
  7.562    64
 7.5745    52
  7.587    45
 7.5995    43
  7.612    55
 7.6245    49
  7.637    44
 7.6495    56
  7.662    37
 7.6746    45
 7.6871    46
 7.6996    35
 7.7121    53
 7.7246    54
 7.7371    47
 7.7496    61
 7.7621    54
 7.7746    59
 7.7871    55
 7.7996    52
 7.8121    54
 7.8246    62
 7.8371    57
 7.8497    61
 7.8622    51
 7.8747    57
 7.8872    62
 7.8997    64
 7.9122    51
 7.9247    84
 7.9372    76
 7.9497    77
 7.9622    87
 7.9747    98
 7.9872    88
 7.9997   125
 8.0122   122
 8.0248   126
 8.0373   147
 8.0498   139
 8.0623   134
 8.0748   137
 8.0873   138
 8.0998   139
 8.1123   161
 8.1248   142
 8.1373   139
 8.1498   129
 8.1623   142
 8.1748   140
 8.1873   146
 8.1999   150
 8.2124   143
 8.2249   198
 8.2374   219
 8.2499   256
 8.2624   303
 8.2749   366
 8.2874   402
 8.2999   440
 8.3124   607
 8.3249   632
 8.3374   829
 8.3499   827
 8.3625   867
  8.375   945
 8.3875   973
    8.4  1008
 8.4125   914
  8.425   864
 8.4375   811
   8.45   739
 8.4625   600
  8.475   497
 8.4875   466
    8.5   328
 8.5125   307
  8.525   251
 8.5376   169
 8.5501   158
 8.5626   124
 8.5751   103
 8.5876    98
 8.6001    92
 8.6126    79
 8.6251    71
 8.6376   102
 8.6501    91
 8.6626   127
 8.6751   101
 8.6876   121
 8.7001   105
 8.7127   119
 8.7252   111
 8.7377   110
 8.7502   111
 8.7627   103
 8.7752   110
 8.7877   107
 8.8002   113
 8.8127    86
 8.8252    95
 8.8377    86
 8.8502    91
 8.8627    71
 8.8752    86
 8.8878    93
 8.9003    93
 8.9128    79
 8.9253    71
 8.9378    97
 8.9503    96
 8.9628    91
 8.9753    93
 8.9878    79
 9.0003    99
 9.0128   113
 9.0253   132
 9.0378   108
 9.0504   159
 9.0629   199
 9.0754   238
 9.0879   253
 9.1004   268
 9.1129   334
 9.1254   367
 9.1379   416
 9.1504   447
 9.1629   475
 9.1754   439
 9.1879   486
 9.2004   476
 9.2129   433
 9.2255   455
  9.238   394
 9.2505   397
  9.263   330
 9.2755   312
  9.288   279
 9.3005   239
  9.313   221
 9.3255   199
  9.338   188
 9.3505   170
  9.363   174
 9.3755   138
  9.388   166
 9.4006   156
 9.4131   178
 9.4256   167
 9.4381   167
 9.4506   197
 9.4631   217
 9.4756   186
 9.4881   245
 9.5006   227
 9.5131   285
 9.5256   283
 9.5381   316
 9.5506   334
 9.5631   435
 9.5757   446
 9.5882   467
 9.6007   508
 9.6132   581
 9.6257   584
 9.6382   647
 9.6507   622
 9.6632   725
 9.6757   623
 9.6882   635
 9.7007   647
 9.7132   601
 9.7257   561
 9.7383   503
 9.7508   430
 9.7633   425
 9.7758   433
 9.7883   360
 9.8008   392
 9.8133   366
 9.8258   381
 9.8383   436
 9.8508   466
 9.8633   505
 9.8758   575
 9.8883   607
 9.9008   737
 9.9134   714
 9.9259   790
 9.9384   850
 9.9509   891
 9.9634   906
 9.9759   907
 9.9884   927
10.0009   858
10.0134   770
10.0259   739
10.0384   692
10.0509   632
10.0634   521
10.0759   417
10.0885   377
 10.101   322
10.1135   214
 10.126   207
10.1385   191
 10.151   165
10.1635   126
 10.176   120
10.1885   123
 10.201   115
10.2135   123
 10.226   107
10.2385   145
 10.251   133
10.2636   140
10.2761   190
10.2886   216
10.3011   285
10.3136   364
10.3261   442
10.3386   620
10.3511   739
10.3636   982
10.3761  1258
10.3886  1619
10.4011  1980
10.4136  2385
10.4262  3032
10.4387  3666
10.4512  4129
10.4637  4835
10.4762  5479
10.4887  6107
10.5012  6679
10.5137  7011
10.5262  7494
10.5387  7483
10.5512  7635
10.5637  7401
10.5762  6931
10.5887  6565
10.6013  5822
10.6138  5127
10.6263  4550
10.6388  3732
10.6513  3091
10.6638  2342
10.6763  1882
10.6888  1447
10.7013  1061
10.7138   773
10.7263   625
10.7388   467
10.7513   359
10.7638   283
10.7764   180
10.7889   151
10.8014   108
10.8139   110
10.8264   103
10.8389    79
10.8514    68
10.8639    96
10.8764    70
10.8889    87
10.9014    79
10.9139    73
10.9264    56
10.9389    62
10.9515    68
 10.964    59
10.9765    55
 10.989    53
11.0015    57
 11.014    46
11.0265    57
 11.039    50
11.0515    69
 11.064    48
11.0765    38
 11.089    50
11.1015    56
11.1141    66
11.1266    72
11.1391    59
11.1516    84
11.1641    73
11.1766    87
11.1891    93
11.2016   122
11.2141   130
11.2266   148
11.2391   154
11.2516   162
11.2641   173
11.2766   168
11.2892   174
11.3017   207
11.3142   193
11.3267   196
11.3392   221
11.3517   204
11.3642   201
11.3767   173
11.3892   157
11.4017   185
11.4142   138
11.4267   118
11.4392   124
11.4517   129
11.4643   121
11.4768   115
11.4893    93
11.5018   116
11.5143    88
11.5268    75
11.5393    82
11.5518    94
11.5643   103
11.5768    83
11.5893    89
11.6018    91
11.6143    90
11.6268   110
11.6394    92
11.6519    99
11.6644   115
11.6769   135
11.6894   149
11.7019   166
11.7144   213
11.7269   206
11.7394   259
11.7519   262
11.7644   300
11.7769   311
11.7894   348
 11.802   302
11.8145   416
 11.827   390
11.8395   403
 11.852   380
11.8645   335
 11.877   372
11.8895   347
 11.902   318
11.9145   288
 11.927   280
11.9395   255
 11.952   247
11.9645   267
11.9771   192
11.9896   194
12.0021   215
12.0146   192
12.0271   211
12.0396   175
12.0521   190
12.0646   197
12.0771   173
12.0896   202
12.1021   191
12.1146   224
12.1271   219
12.1396   227
12.1522   262
12.1647   242
12.1772   310
12.1897   273
12.2022   281
12.2147   339
12.2272   333
12.2397   344
12.2522   401
12.2647   380
12.2772   392
12.2897   399
12.3022   419
12.3147   389
12.3273   393
12.3398   398
12.3523   387
12.3648   384
12.3773   405
12.3898   418
12.4023   513
12.4148   570
12.4273   709
12.4398   847
12.4523  1121
12.4648  1323
12.4773  1731
12.4899  2071
12.5024  2454
12.5149  2923
12.5274  3459
12.5399  3713
12.5524  4289
12.5649  4644
12.5774  4902
12.5899  5099
12.6024  5134
12.6149  5139
12.6274  5062
12.6399  4755
12.6524  4642
 12.665  4121
12.6775  3747
  12.69  3355
12.7025  2872
 12.715  2538
12.7275  2006
  12.74  1790
12.7525  1516
 12.765  1190
12.7775  1061
  12.79   865
12.8025   717
 12.815   626
12.8275   516
12.8401   456
12.8526   429
12.8651   396
12.8776   307
12.8901   298
12.9026   281
12.9151   250
12.9276   267
12.9401   240
12.9526   241
12.9651   244
12.9776   224
12.9901   247
13.0026   219
13.0152   209
13.0277   222
13.0402   180
13.0527   185
13.0652   199
13.0777   129
13.0902   149
13.1027   127
13.1152   120
13.1277    97
13.1402    73
13.1527    83
13.1652    58
13.1778    60
13.1903    54
13.2028    42
13.2153    39
13.2278    38
13.2403    30
13.2528    39
13.2653    31
13.2778    37
13.2903    38
13.3028    39
13.3153    32
13.3278    36
13.3403    42
13.3529    28
13.3654    35
13.3779    35
13.3904    27
13.4029    35
13.4154    31
13.4279    29
13.4404    25
13.4529    24
13.4654    18
13.4779    19
13.4904    16
13.5029    18
13.5154    15
 13.528    20
13.5405    16
 13.553    17
13.5655    17
 13.578    21
13.5905    17
 13.603    17
13.6155    26
 13.628    13
13.6405    24
 13.653    23
13.6655    31
 13.678    24
13.6905    23
13.7031    46
13.7156    45
13.7281    37
13.7406    46
13.7531    43
13.7656    51
13.7781    60
13.7906    51
13.8031    57
13.8156    50
13.8281    40
13.8406    50
13.8531    59
13.8657    59
13.8782    53
13.8907    46
13.9032    39
13.9157    40
13.9282    44
13.9407    24
13.9532    39
13.9657    26
13.9782    25
13.9907    20
14.0032    15
14.0157    30
14.0282    24
14.0408    23
14.0533    19
14.0658    25
14.0783    25
14.0908    24
14.1033    24
14.1158    39
14.1283    32
14.1408    38
14.1533    33
14.1658    42
14.1783    38
14.1908    34
14.2033    50
14.2159    50
14.2284    46
14.2409    52
14.2534    48
14.2659    43
14.2784    57
14.2909    53
14.3034    49
14.3159    39
14.3284    39
14.3409    35
14.3534    40
14.3659    30
14.3784    37
 14.391    34
14.4035    25
 14.416    29
14.4285    22
 14.441    30
14.4535    32
 14.466    27
14.4785    29
 14.491    27
14.5035    40
 14.516    42
14.5285    58
 14.541    74
14.5536    79
14.5661    96
14.5786   115
14.5911   147
14.6036   164
14.6161   193
14.6286   228
14.6411   318
14.6536   336
14.6661   381
14.6786   426
14.6911   467
14.7036   484
14.7161   500
14.7287   586
14.7412   535
14.7537   564
14.7662   534
14.7787   523
14.7912   502
14.8037   455
14.8162   439
14.8287   383
14.8412   322
14.8537   306
14.8662   242
14.8787   207
14.8912   162
14.9038   150
14.9163   119
14.9288   112
14.9413    78
14.9538   102
14.9663   104
14.9788    81
14.9913    73
15.0038   105
15.0163    89
15.0288   105
15.0413   128
15.0538   113
15.0663   126
15.0789   140
15.0914   157
15.1039   149
15.1164   151
15.1289   188
15.1414   177
15.1539   163
15.1664   175
15.1789   170
15.1914   152
15.2039   165
15.2164   125
15.2289   126
15.2415   125
 15.254   108
15.2665    75
 15.279    76
15.2915    66
 15.304    65
15.3165    67
 15.329    39
15.3415    41
 15.354    37
15.3665    25
 15.379    22
15.3915    19
 15.404    19
15.4166    16
15.4291    19
15.4416    11
15.4541    17
15.4666    10
15.4791    14
15.4916    10
15.5041     9
15.5166     8
15.5291    14
15.5416    17
15.5541    18
15.5666    15
15.5791    13
15.5917    22
15.6042    21
15.6167    20
15.6292    26
15.6417    32
15.6542    38
15.6667    38
15.6792    34
15.6917    42
15.7042    39
15.7167    45
15.7292    34
15.7417    50
15.7542    40
15.7668    44
15.7793    33
15.7918    33
15.8043    34
15.8168    28
15.8293    22
15.8418    27
15.8543    32
15.8668    27
15.8793    19
15.8918    16
15.9043    11
15.9168    11
15.9294    12
15.9419    14
15.9544     8
15.9669    14
15.9794     9
15.9919     9
16.0044    10
16.0169     6
16.0294     8
16.0419     8
16.0544    11
16.0669    11
16.0794     9
16.0919     7
16.1045     9
 16.117     8
16.1295    13
 16.142     7
16.1545    14
 16.167    14
16.1795     9
 16.192     8
16.2045    13
 16.217    15
16.2295     6
 16.242    11
16.2545     8
 16.267     8
16.2796    14
16.2921     7
16.3046     5
16.3171    10
16.3296     5
16.3421    11
16.3546    10
16.3671     8
16.3796     6
16.3921     8
16.4046    12
16.4171     9
16.4296     6
16.4421    10
16.4547    16
16.4672    13
16.4797     9
16.4922    11
16.5047    15
16.5172     6
16.5297    10
16.5422    13
16.5547     6
16.5672    13
16.5797     5
16.5922     8
16.6047    18
16.6173    12
16.6298     7
16.6423    10
16.6548     9
16.6673    12
16.6798     4
16.6923    13
16.7048    12
16.7173     7
16.7298     6
16.7423    11
16.7548     6
16.7673     9
16.7798    11
16.7924    10
16.8049     6
16.8174     9
16.8299    12
16.8424     9
16.8549     6
16.8674    11
16.8799     8
16.8924     6
16.9049    12
16.9174     8
16.9299     9
16.9424    12
16.9549    13
16.9675     9
  16.98     7
16.9925    11
 17.005    12
17.0175     9
  17.03     9
17.0425    10
 17.055     8
17.0675     6
  17.08    12
17.0925     7
 17.105     9
17.1175     9
  17.13     6
17.1426    13
17.1551    12
17.1676    11
17.1801     8
17.1926     6
17.2051     6
17.2176    12
17.2301    11
17.2426    11
17.2551     3
17.2676    12
17.2801     9
17.2926     5
17.3052    10
17.3177    10
17.3302    11
17.3427     8
17.3552    14
17.3677     7
17.3802     5
17.3927    11
17.4052     7
17.4177     6
17.4302    16
17.4427     9
17.4552    18
17.4677    12
17.4803    10
17.4928     9
17.5053    13
17.5178    16
17.5303    17
17.5428     9
17.5553    12
17.5678    13
17.5803    10
17.5928     9
17.6053    10
17.6178     8
17.6303    10
17.6428    17
17.6554    13
17.6679    11
17.6804     7
17.6929     9
17.7054    15
17.7179    11
17.7304    21
17.7429     8
17.7554     9
17.7679    10
17.7804    11
17.7929    19
17.8054    10
17.8179     9
17.8305    10
 17.843     5
17.8555     8
 17.868    10
17.8805     8
 17.893    11
17.9055     7
 17.918     7
17.9305     7
 17.943    11
17.9555    10
 17.968     8
17.9805    10
17.9931    13
18.0056     8
18.0181    14
18.0306     8
18.0431     7
18.0556    11
18.0681    10
18.0806     7
18.0931     3
18.1056     6
18.1181     8
18.1306    13
18.1431     7
18.1556    10
18.1682     9
18.1807    13
18.1932     6
18.2057     8
18.2182     6
18.2307     7
18.2432    10
18.2557     5
18.2682     8
18.2807    11
18.2932    10
18.3057     7
18.3182     9
18.3307    10
18.3433     9
18.3558     5
18.3683    10
18.3808     8
18.3933     4
18.4058    12
18.4183     8
18.4308     3
18.4433    11
18.4558     8
18.4683    14
18.4808     9
18.4933     6
18.5058     1
18.5184     6
18.5309     4
18.5434    11
18.5559     9
18.5684    11
18.5809     7
18.5934     8
18.6059     9
18.6184    11
18.6309     5
18.6434     7
18.6559     8
18.6684    13
 18.681     4
18.6935     6
 18.706     7
18.7185     7
 18.731     7
18.7435     9
 18.756    10
18.7685     7
 18.781    10
18.7935     5
 18.806     4
18.8185     6
 18.831     5
18.8435    10
18.8561     3
18.8686    11
18.8811     8
18.8936     8
18.9061     8
18.9186     3
18.9311     5
18.9436    12
18.9561     8
18.9686     5
18.9811     6
18.9936     8
19.0061     5
19.0186     6
19.0312     8
19.0437     9
19.0562    13
19.0687    10
19.0812     4
19.0937     3
19.1062     2
19.1187     8
19.1312     8
19.1437     7
19.1562    14
19.1687     9
19.1812     8
19.1937     7
19.2063     8
19.2188    10
19.2313     6
19.2438     3
19.2563     5
19.2688    10
19.2813     5
19.2938     6
19.3063     5
19.3188     8
19.3313    10
19.3438     6
19.3563     6
19.3689     9
19.3814     7
19.3939     6
19.4064     8
19.4189     4
19.4314     5
19.4439     6
19.4564     9
19.4689     5
19.4814     7
19.4939    11
19.5064     4
19.5189     7
19.5314    10
 19.544     6
19.5565    10
 19.569     5
19.5815     9
 19.594     5
19.6065     6
 19.619     5
19.6315     9
 19.644     9
19.6565    11
 19.669     4
19.6815     5
 19.694     5
19.7065     5
19.7191     5
19.7316     6
19.7441     8
19.7566    11
19.7691     9
19.7816     9
19.7941     9
19.8066     5
19.8191     4
19.8316     2
19.8441     6
19.8566    12
19.8691     6
19.8816     5
19.8942     6
19.9067     6
19.9192     5
19.9317     5
19.9442     8
19.9567     7
19.9692     5
19.9817     7
19.9942     8
20.0067     4
20.0192     8
20.0317     5
20.0442    11
20.0568     6
20.0693     3
20.0818     4
20.0943     8
20.1068     8
20.1193     3
20.1318     7
20.1443    11
20.1568     9
20.1693     7
20.1818     6
20.1943     6
20.2068     4
20.2193    14
20.2319     9
20.2444     6
20.2569     9
20.2694     8
20.2819     8
20.2944     9
20.3069     4
20.3194    13
20.3319     6
20.3444     6
20.3569     6
20.3694     3
20.3819     4
20.3944     2
 20.407     6
20.4195     6
 20.432     2
20.4445    12
 20.457     6
20.4695     9
 20.482     3
20.4945     4
 20.507    12
20.5195     4
 20.532     6
20.5445     7
 20.557     6
20.5695     5
20.5821     4
20.5946     3
20.6071     7
20.6196     6
20.6321     5
20.6446     6
20.6571     5
20.6696     6
20.6821     2
20.6946     5
20.7071     5
20.7196    10
20.7321     4
20.7447     6
20.7572     6
20.7697    11
20.7822     9
20.7947     6
20.8072    12
20.8197     7
20.8322    11
20.8447     3
20.8572     2
20.8697     7
20.8822     7
20.8947     3
20.9072     6
20.9198     5
20.9323     8
20.9448     5
20.9573    14
20.9698     9
20.9823     5
20.9948    11
21.0073     5
21.0198     8
21.0323     6
21.0448     8
21.0573     8
21.0698     7
21.0823     9
21.0949     6
21.1074     5
21.1199    10
21.1324     5
21.1449     5
21.1574    10
21.1699     2
21.1824     7
21.1949     4
21.2074     6
21.2199     5
21.2324    10
21.2449     8
21.2574    12
  21.27     9
21.2825     4
 21.295     6
21.3075    10
  21.32     4
21.3325    12
 21.345     7
21.3575     9
  21.37     6
21.3825     8
 21.395     4
21.4075     4
  21.42     8
21.4326     7
21.4451    10
21.4576    10
21.4701     8
21.4826     3
21.4951     7
21.5076     5
21.5201     6
21.5326     9
21.5451     5
21.5576     8
21.5701     3
21.5826     3
21.5951     4
21.6077     9
21.6202    11
21.6327     7
21.6452     3
21.6577     3
21.6702     7
21.6827     6
21.6952    11
21.7077     7
21.7202     4
21.7327     6
21.7452     8
21.7577     3
21.7702     6
21.7828     2
21.7953    11
21.8078     6
21.8203    11
21.8328    11
21.8453     5
21.8578     5
21.8703     4
21.8828     5
21.8953     3
21.9078     6
21.9203     9
21.9328     3
21.9453     6
21.9579     0
21.9704     7
21.9829    10
21.9954     6
22.0079     6
22.0204     7
22.0329     7
22.0454     5
22.0579    10
22.0704     7
22.0829     9
22.0954     7
22.1079     8
22.1205     9
 22.133     4
22.1455     6
 22.158     6
22.1705    10
 22.183     9
22.1955     8
 22.208     4
22.2205     9
 22.233     6
22.2455     3
 22.258     6
22.2705     4
 22.283     5
22.2956     7
22.3081     9
22.3206     6
22.3331     5
22.3456     5
22.3581     6
22.3706     4
22.3831     7
22.3956     1
22.4081     5
22.4206     6
22.4331     4
22.4456     7
22.4581     7
22.4707     3
22.4832     2
22.4957     6
22.5082     3
22.5207     5
22.5332     4
22.5457     6
22.5582     5
22.5707     7
22.5832     3
22.5957     2
22.6082     7
22.6207     4
22.6332     4
22.6458     7
22.6583     8
22.6708     4
22.6833     3
22.6958     5
22.7083     2
22.7208     8
22.7333     3
22.7458     4
22.7583     4
22.7708     7
22.7833     9
22.7958     3
22.8084     3
22.8209     9
22.8334     2
22.8459     5
22.8584     1
22.8709     6
22.8834     9
22.8959     5
22.9084     5
22.9209     4
22.9334    11
22.9459     7
22.9584     5
22.9709     7
22.9835     7
 22.996    10
23.0085     4
 23.021     5
23.0335     9
 23.046     9
23.0585     2
 23.071     4
23.0835     9
 23.096     7
23.1085     7
 23.121     7
23.1335     8
 23.146     8
23.1586     5
23.1711     6
23.1836     6
23.1961     4
23.2086     5
23.2211     3
23.2336     4
23.2461     7
23.2586     4
23.2711     1
23.2836     8
23.2961     6
23.3086     7
23.3211     5
23.3337     3
23.3462     4
23.3587     5
23.3712     3
23.3837     7
23.3962     4
23.4087     4
23.4212     0
23.4337     2
23.4462     6
23.4587     8
23.4712     2
23.4837     6
23.4963     8
23.5088     5
23.5213     5
23.5338     5
23.5463     2
23.5588     6
23.5713     4
23.5838     6
23.5963     8
23.6088     5
23.6213     4
23.6338     5
23.6463     2
23.6588     3
23.6714    11
23.6839     7
23.6964     5
23.7089     4
23.7214     5
23.7339     7
23.7464     5
23.7589     2
23.7714     5
23.7839     4
23.7964     8
23.8089     5
23.8214    12
23.8339     8
23.8465     2
 23.859     6
23.8715     3
 23.884     3
23.8965     6
 23.909     3
23.9215     4
 23.934    10
23.9465     5
 23.959     3
23.9715     1
 23.984     6
23.9965     3
 24.009     6
24.0216     6
24.0341     3
24.0466     6
24.0591     5
24.0716     8
24.0841     4
24.0966     4
24.1091     5
24.1216     2
24.1341     7
24.1466     4
24.1591     4
24.1716     1
24.1842     3
24.1967     4
24.2092     7
24.2217     4
24.2342     3
24.2467     4
24.2592     6
24.2717     3
24.2842     4
24.2967     4
24.3092     2
24.3217     2
24.3342     3
24.3467     4
24.3593     2
24.3718     3
24.3843     3
24.3968     2
24.4093     3
24.4218     3
24.4343     2
24.4468     3
24.4593     5
24.4718     7
24.4843     9
24.4968     4
24.5093     5
24.5218     1
24.5344     2
24.5469     7
24.5594     1
24.5719     4
24.5844     4
24.5969     4
24.6094     1
24.6219     2
24.6344     6
24.6469     5
24.6594     4
24.6719     6
24.6844     3
24.6969     2
24.7095     3
 24.722     5
24.7345     8
 24.747     3
24.7595     4
 24.772     3
24.7845     2
 24.797     1
24.8095     2
 24.822     2
24.8345     6
 24.847     3
24.8595     0
24.8721     4
24.8846     3
24.8971     5
24.9096     2
24.9221     4
24.9346     8
24.9471     2
24.9596     6
24.9721     4
24.9846     4
24.9971     8
25.0096     5
25.0221     4
25.0346     7
25.0472     6
25.0597     6
25.0722     5
25.0847     6
25.0972     7
25.1097     7
25.1222     5
25.1347     4
25.1472     0
25.1597     8
25.1722     3
25.1847     9
25.1972     3
25.2097     3
25.2223     6
25.2348     5
25.2473     4
25.2598     8
25.2723     5
25.2848     5
25.2973     6
25.3098     3
25.3223     7
25.3348     7
25.3473     5
25.3598     2
25.3723     7
25.3848     4
25.3974     5
25.4099     1
25.4224     2
25.4349     1
25.4474     2
25.4599     4
25.4724     2
25.4849     6
25.4974     5
25.5099     2
25.5224     1
25.5349     3
25.5474     1
  25.56     5
25.5725     2
 25.585     4
25.5975     2
  25.61     6
25.6225     2
 25.635     1
25.6475     3
  25.66     4
25.6725     4
 25.685     4
25.6975     2
  25.71     1
25.7225     4
25.7351     1
25.7476     5
25.7601     2
25.7726     1
25.7851     1
25.7976     4
25.8101     4
25.8226     4
25.8351     3
25.8476     2
25.8601     4
25.8726     1
25.8851     3
25.8976     4
25.9102     0
25.9227     3
25.9352     3
25.9477     2
25.9602     2
25.9727     8
25.9852     4
25.9977     3
26.0102     6
26.0227     3
26.0352     0
26.0477     2
26.0602     0
26.0727     3
26.0853     2
26.0978     3
26.1103     2
26.1228     9
26.1353     4
26.1478     7
26.1603     4
26.1728     4
26.1853     5
26.1978     3
26.2103     2
26.2228     6
26.2353     5
26.2479     1
26.2604     2
26.2729     6
26.2854     2
26.2979     2
26.3104     4
26.3229     5
26.3354     4
26.3479     4
26.3604     4
26.3729     4
26.3854     3
26.3979     2
26.4104     2
 26.423     3
26.4355     2
 26.448     2
26.4605     0
 26.473     3
26.4855     1
 26.498     3
26.5105     3
 26.523     5
26.5355     1
 26.548     4
26.5605     2
 26.573     2
26.5855     5
26.5981     4
26.6106     8
26.6231     1
26.6356     2
26.6481     3
26.6606     1
26.6731     1
26.6856     3
26.6981     4
26.7106     2
26.7231     3
26.7356     2
26.7481     3
26.7606     1
26.7732     3
26.7857     2
26.7982     4
26.8107     2
26.8232     4
26.8357     2
26.8482     3
26.8607     3
26.8732     4
26.8857     2
26.8982     3
26.9107     3
26.9232     1
26.9358     5
26.9483     5
26.9608     5
26.9733     1
26.9858     3
26.9983     6
27.0108     1
27.0233     5
27.0358     1
27.0483     2
27.0608     1
27.0733     2
27.0858     4
27.0983     3
27.1109     2
27.1234     3
27.1359     1
27.1484     3
27.1609     2
27.1734     0
27.1859     4
27.1984     0
27.2109     6
27.2234     2
27.2359     2
27.2484     0
27.2609     1
27.2734     1
 27.286     1
27.2985     2
 27.311     1
27.3235     1
 27.336     3
27.3485     3
 27.361     2
27.3735     3
 27.386     1
27.3985     2
 27.411     1
27.4235     0
 27.436     2
27.4485     3
27.4611     1
27.4736     3
27.4861     0
27.4986     5
27.5111     4
27.5236     3
27.5361     2
27.5486     3
27.5611     2
27.5736     1
27.5861     1
27.5986     3
27.6111     4
27.6237     4
27.6362     1
27.6487     4
27.6612     2
27.6737     1
27.6862     3
27.6987     3
27.7112     2
27.7237     3
27.7362     3
27.7487     1
27.7612     4
27.7737     4
27.7862     1
27.7988     2
27.8113     2
27.8238     6
27.8363     5
27.8488     2
27.8613     3
27.8738     0
27.8863     3
27.8988     1
27.9113     2
27.9238     2
27.9363     3
27.9488     4
27.9613     3
27.9739     5
27.9864     0
27.9989     2
28.0114     3
28.0239     2
28.0364     2
28.0489     1
28.0614     1
28.0739     4
28.0864     4
28.0989     0
28.1114     3
28.1239     4
28.1364     1
 28.149     2
28.1615     2
 28.174     1
28.1865     1
 28.199     1
28.2115     1
 28.224     1
28.2365     2
 28.249     3
28.2615     3
 28.274     5
28.2865     4
 28.299     1
28.3116     3
28.3241     2
28.3366     1
28.3491     3
28.3616     1
28.3741     0
28.3866     5
28.3991     3
28.4116     2
28.4241     3
28.4366     2
28.4491     2
28.4616     2
28.4741     3
28.4867     2
28.4992     1
28.5117     2
28.5242     0
28.5367     2
28.5492     4
28.5617     2
28.5742     5
28.5867     2
28.5992     4
28.6117     1
28.6242     3
28.6367     4
28.6492     1
28.6618     1
28.6743     2
28.6868     1
28.6993     2
28.7118     3
28.7243     1
28.7368     1
28.7493     3
28.7618     1
28.7743     1
28.7868     2
28.7993     0
28.8118     1
28.8243     2
28.8369     0
28.8494     0
28.8619     5
28.8744     1
28.8869     1
28.8994     2
28.9119     5
28.9244     5
28.9369     1
28.9494     4
28.9619     2
28.9744     4
28.9869     2
28.9995     1
 29.012     2
29.0245     2
 29.037     1
29.0495     0
 29.062     3
29.0745     0
 29.087     1
29.0995     1
 29.112     1
29.1245     2
 29.137     1
29.1495     1
 29.162     0
29.1746     3
29.1871     1
29.1996     1
29.2121     1
29.2246     2
29.2371     3
29.2496     1
29.2621     1
29.2746     0
29.2871     0
29.2996     5
29.3121     0
29.3246     0
29.3371     2
29.3497     1
29.3622     3
29.3747     0
29.3872     5
29.3997     1
29.4122     3
29.4247     1
29.4372     1
29.4497     3
29.4622     1
29.4747     0
29.4872     1
29.4997     0
29.5123     2
29.5248     1
29.5373     2
29.5498     2
29.5623     2
29.5748     0
29.5873     0
29.5998     2
29.6123     0
29.6248     3
29.6373     1
29.6498     1
29.6623     2
29.6748     3
29.6874     1
29.6999     2
29.7124     1
29.7249     0
29.7374     5
29.7499     1
29.7624     1
29.7749     1
29.7874     2
29.7999     3
29.8124     1
29.8249     2
29.8374     3
29.8499     3
29.8625     3
 29.875     4
29.8875     2
   29.9     2
29.9125     0
 29.925     2
29.9375     5
  29.95     1
29.9625     2
 29.975     0
29.9875     2
     30     3
30.0125     3
 30.025     5
30.0376     2
30.0501     1
30.0626     0
30.0751     4
30.0876     1
30.1001     1
30.1126     1
30.1251     0
30.1376     4
30.1501     3
30.1626     3
30.1751     1
30.1876     4
30.2002     2
30.2127     1
30.2252     1
30.2377     2
30.2502     1
30.2627     1
30.2752     1
30.2877     1
30.3002     1
30.3127     3
30.3252     5
30.3377     0
30.3502     1
30.3627     3
30.3753     0
30.3878     1
30.4003     3
30.4128     2
30.4253     2
30.4378     1
30.4503     0
30.4628     1
30.4753     2
30.4878     1
30.5003     4
30.5128     2
30.5253     1
30.5378     0
30.5504     1
30.5629     0
30.5754     0
30.5879     0
30.6004     3
30.6129     1
30.6254     1
30.6379     1
30.6504     0
30.6629     1
30.6754     2
30.6879     0
30.7004     1
30.7129     2
30.7255     0
 30.738     1
30.7505     0
 30.763     2
30.7755     1
 30.788     2
30.8005     1
 30.813     2
30.8255     3
 30.838     0
30.8505     3
 30.863     3
30.8755     1
30.8881     0
30.9006     1
30.9131     1
30.9256     1
30.9381     0
30.9506     1
30.9631     2
30.9756     1
30.9881     1
31.0006     0
31.0131     0
31.0256     0
31.0381     1
31.0506     0
31.0632     3
31.0757     0
31.0882     1
31.1007     0
31.1132     3
31.1257     1
31.1382     2
31.1507     1
31.1632     1
31.1757     0
31.1882     1
31.2007     3
31.2132     3
31.2257     2
31.2383     0
31.2508     4
31.2633     0
31.2758     2
31.2883     1
31.3008     1
31.3133     0
31.3258     1
31.3383     0
31.3508     2
31.3633     0
31.3758     3
31.3883     2
31.4008     3
31.4134     0
31.4259     3
31.4384     0
31.4509     0
31.4634     2
31.4759     1
31.4884     0
31.5009     1
31.5134     2
31.5259     3
31.5384     3
31.5509     2
31.5634     2
 31.576     2
31.5885     2
 31.601     0
31.6135     1
 31.626     0
31.6385     2
 31.651     2
31.6635     2
 31.676     2
31.6885     2
 31.701     1
31.7135     2
 31.726     0
31.7385     0
31.7511     1
31.7636     1
31.7761     0
31.7886     1
31.8011     2
31.8136     2
31.8261     1
31.8386     3
31.8511     4
31.8636     0
31.8761     0
31.8886     0
31.9011     0
31.9136     1
31.9262     0
31.9387     0
31.9512     1
31.9637     0
31.9762     0
31.9887     5
32.0012     1
32.0137     0
32.0262     1
32.0387     2
32.0512     1
32.0637     2
32.0762     3
32.0887     0
32.1013     3
32.1138     2
32.1263     0
32.1388     0
32.1513     0
32.1638     1
32.1763     1
32.1888     0
32.2013     0
32.2138     1
32.2263     1
32.2388     1
32.2513     0
32.2639     2
32.2764     1
32.2889     2
32.3014     0
32.3139     1
32.3264     1
32.3389     1
32.3514     1
32.3639     0
32.3764     1
32.3889     2
32.4014     0
32.4139     1
32.4264     0
 32.439     1
32.4515     1
 32.464     0
32.4765     1
 32.489     0
32.5015     1
 32.514     1
32.5265     1
 32.539     2
32.5515     3
 32.564     4
32.5765     0
 32.589     0
32.6015     0
32.6141     2
32.6266     0
32.6391     1
32.6516     1
32.6641     0
32.6766     1
32.6891     1
32.7016     1
32.7141     0
32.7266     2
32.7391     1
32.7516     1
32.7641     1
32.7766     0
32.7892     3
32.8017     1
32.8142     2
32.8267     1
32.8392     1
32.8517     2
32.8642     1
32.8767     2
32.8892     1
32.9017     1
32.9142     0
32.9267     1
32.9392     0
32.9518     0
32.9643     0
32.9768     2
32.9893     0
33.0018     1
33.0143     3
33.0268     1
33.0393     2
33.0518     0
33.0643     2
33.0768     0
33.0893     0
33.1018     1
33.1143     1
33.1269     1
33.1394     1
33.1519     2
33.1644     1
33.1769     0
33.1894     1
33.2019     1
33.2144     0
33.2269     1
33.2394     1
33.2519     0
33.2644     2
33.2769     0
33.2894     1
 33.302     1
33.3145     0
 33.327     0
33.3395     0
 33.352     1
33.3645     2
 33.377     0
33.3895     1
 33.402     1
33.4145     0
 33.427     3
33.4395     2
 33.452     0
33.4645     0
33.4771     1
33.4896     1
33.5021     0
33.5146     1
33.5271     0
33.5396     2
33.5521     0
33.5646     1
33.5771     0
33.5896     1
33.6021     3
33.6146     0
33.6271     1
33.6397     1
33.6522     0
33.6647     0
33.6772     0
33.6897     0
33.7022     1
33.7147     1
33.7272     2
33.7397     0
33.7522     0
33.7647     1
33.7772     1
33.7897     0
33.8022     1
33.8148     1
33.8273     0
33.8398     1
33.8523     0
33.8648     0
33.8773     1
33.8898     0
33.9023     0
33.9148     0
33.9273     1
33.9398     3
33.9523     0
33.9648     1
33.9773     2
33.9899     2
34.0024     0
34.0149     0
34.0274     1
34.0399     2
34.0524     1
34.0649     1
34.0774     1
34.0899     1
34.1024     2
34.1149     0
34.1274     0
34.1399     1
34.1524     0
 34.165     2
34.1775     1
  34.19     1
34.2025     0
 34.215     0
34.2275     1
  34.24     0
34.2525     1
 34.265     0
34.2775     0
  34.29     0
34.3025     1
 34.315     1
34.3276     0
34.3401     0
34.3526     2
34.3651     0
34.3776     0
34.3901     0
34.4026     3
34.4151     0
34.4276     1
34.4401     1
34.4526     1
34.4651     0
34.4776     1
34.4901     0
34.5027     2
34.5152     2
34.5277     0
34.5402     2
34.5527     0
34.5652     0
34.5777     3
34.5902     0
34.6027     1
34.6152     0
34.6277     0
34.6402     3
34.6527     0
34.6652     0
34.6778     0
34.6903     0
34.7028     0
34.7153     0
34.7278     1
34.7403     0
34.7528     0
34.7653     0
34.7778     1
34.7903     0
34.8028     0
34.8153     0
34.8278     0
34.8403     4
34.8529     1
34.8654     1
34.8779     0
34.8904     1
34.9029     0
34.9154     0
34.9279     0
34.9404     1
34.9529     0
34.9654     0
34.9779     0
34.9904     0
35.0029     0
35.0155     0
 35.028     1
35.0405     1
 35.053     0
35.0655     1
 35.078     1
35.0905     2
 35.103     1
35.1155     0
 35.128     1
35.1405     1
 35.153     1
35.1655     0
 35.178     0
35.1906     1
35.2031     0
35.2156     0
35.2281     0
35.2406     2
35.2531     0
35.2656     0
35.2781     2
35.2906     0
35.3031     1
35.3156     1
35.3281     0
35.3406     0
35.3531     0
35.3657     2
35.3782     1
35.3907     1
35.4032     1
35.4157     0
35.4282     0
35.4407     0
35.4532     1
35.4657     0
35.4782     1
35.4907     0
35.5032     0
35.5157     0
35.5282     2
35.5408     0
35.5533     2
35.5658     1
35.5783     2
35.5908     0
35.6033     0
35.6158     0
35.6283     0
35.6408     0
35.6533     2
35.6658     0
35.6783     1
35.6908     0
35.7034     0
35.7159     0
35.7284     0
35.7409     0
35.7534     0
35.7659     1
35.7784     0
35.7909     0
35.8034     0
35.8159     0
35.8284     1
35.8409     0
35.8534     2
35.8659     0
35.8785     0
 35.891     0
35.9035     0
 35.916     2
35.9285     1
 35.941     1
35.9535     0
 35.966     1
35.9785     0
 35.991     1
36.0035     0
 36.016     2
36.0285     0
 36.041     3
36.0536     1
36.0661     0
36.0786     2
36.0911     1
36.1036     2
36.1161     1
36.1286     1
36.1411     0
36.1536     0
36.1661     0
36.1786     0
36.1911     1
36.2036     1
36.2161     1
36.2287     2
36.2412     0
36.2537     1
36.2662     1
36.2787     0
36.2912     0
36.3037     0
36.3162     0
36.3287     1
36.3412     1
36.3537     1
36.3662     0
36.3787     0
36.3913     0
36.4038     0
36.4163     1
36.4288     3
36.4413     0
36.4538     0
36.4663     0
36.4788     1
36.4913     0
36.5038     0
36.5163     0
36.5288     2
36.5413     0
36.5538     4
36.5664     0
36.5789     0
36.5914     0
36.6039     0
36.6164     1
36.6289     0
36.6414     0
36.6539     0
36.6664     1
36.6789     0
36.6914     0
36.7039     0
36.7164     0
36.7289     1
36.7415     0
 36.754     0
36.7665     1
 36.779     0
36.7915     0
 36.804     0
36.8165     2
 36.829     1
36.8415     0
 36.854     0
36.8665     0
 36.879     1
36.8915     0
 36.904     1
36.9166     0
36.9291     0
36.9416     1
36.9541     1
36.9666     0
36.9791     0
36.9916     0
37.0041     0
37.0166     0
37.0291     0
37.0416     0
37.0541     1
37.0666     3
37.0792     0
37.0917     0
37.1042     2
37.1167     0
37.1292     1
37.1417     0
37.1542     1
37.1667     0
37.1792     1
37.1917     0
37.2042     0
37.2167     0
37.2292     0
37.2417     1
37.2543     0
37.2668     0
37.2793     0
37.2918     0
37.3043     1
37.3168     0
37.3293     0
37.3418     1
37.3543     1
37.3668     0
37.3793     1
37.3918     2
37.4043     1
37.4168     0
37.4294     0
37.4419     0
37.4544     0
37.4669     0
37.4794     1
37.4919     2
37.5044     0
37.5169     0
37.5294     0
37.5419     0
37.5544     0
37.5669     0
37.5794     0
37.5919     0
37.6045     0
 37.617     1
37.6295     0
 37.642     0
37.6545     0
 37.667     1
37.6795     0
 37.692     1
37.7045     0
 37.717     0
37.7295     0
 37.742     0
37.7545     0
37.7671     0
37.7796     0
37.7921     0
37.8046     0
37.8171     0
37.8296     0
37.8421     0
37.8546     1
37.8671     0
37.8796     1
37.8921     1
37.9046     0
37.9171     1
37.9296     0
37.9422     2
37.9547     0
37.9672     0
37.9797     1
37.9922     0
38.0047     1
38.0172     0
38.0297     1
38.0422     0
38.0547     0
38.0672     0
38.0797     1
38.0922     0
38.1047     0
38.1173     0
38.1298     0
38.1423     0
38.1548     0
38.1673     0
38.1798     0
38.1923     0
38.2048     0
38.2173     1
38.2298     0
38.2423     0
38.2548     0
38.2673     1
38.2798     0
38.2924     1
38.3049     0
38.3174     1
38.3299     0
38.3424     0
38.3549     1
38.3674     0
38.3799     0
38.3924     1
38.4049     0
38.4174     1
38.4299     2
38.4424     0
 38.455     0
38.4675     1
  38.48     0
38.4925     0
 38.505     0
38.5175     1
  38.53     1
38.5425     0
 38.555     0
38.5675     1
  38.58     0
38.5925     0
 38.605     1
38.6175     1
38.6301     0
38.6426     0
38.6551     1
38.6676     0
38.6801     0
38.6926     0
38.7051     0
38.7176     0
38.7301     0
38.7426     0
38.7551     0
38.7676     0
38.7801     1
38.7926     1
38.8052     1
38.8177     1
38.8302     0
38.8427     0
38.8552     0
38.8677     2
38.8802     1
38.8927     0
38.9052     0
38.9177     1
38.9302     0
38.9427     0
38.9552     1
38.9677     1
38.9803     0
38.9928     0
39.0053     0
39.0178     1
39.0303     1
39.0428     0
39.0553     0
39.0678     0
39.0803     0
39.0928     0
39.1053     0
39.1178     0
39.1303     0
39.1429     0
39.1554     1
39.1679     4
39.1804     0
39.1929     0
39.2054     0
39.2179     0
39.2304     0
39.2429     0
39.2554     0
39.2679     0
39.2804     0
39.2929     0
39.3054     0
 39.318     0
39.3305     0
 39.343     0
39.3555     0
 39.368     0
39.3805     0
 39.393     0
39.4055     0
 39.418     0
39.4305     1
 39.443     0
39.4555     0
 39.468     0
39.4805     0
39.4931     1
39.5056     0
39.5181     1
39.5306     2
39.5431     0
39.5556     0
39.5681     0
39.5806     0
39.5931     0
39.6056     0
39.6181     0
39.6306     0
39.6431     0
39.6556     0
39.6682     0
39.6807     0
39.6932     0
39.7057     0
39.7182     0
39.7307     0
39.7432     1
39.7557     0
39.7682     0
39.7807     0
39.7932     0
39.8057     0
39.8182     1
39.8308     0
39.8433     0
39.8558     0
39.8683     1
39.8808     0
39.8933     0
39.9058     1
39.9183     0
39.9308     0
39.9433     1
39.9558     0
39.9683     0
39.9808     0
39.9933     1
40.0059     0
40.0184     0
40.0309     0
40.0434     0
40.0559     0
40.0684     0
40.0809     1
40.0934     0
40.1059     0
40.1184     0
40.1309     0
40.1434     0
40.1559     0
40.1684     1
 40.181     0
40.1935     0
 40.206     0
40.2185     0
 40.231     0
40.2435     0
 40.256     0
40.2685     0
 40.281     0
40.2935     0
 40.306     0
40.3185     0
 40.331     0
40.3435     0
40.3561     0
40.3686     0
40.3811     1
40.3936     0
40.4061     0
40.4186     0
40.4311     0
40.4436     0
40.4561     0
40.4686     0
40.4811     0
40.4936     0
40.5061     0
40.5187     0
40.5312     0
40.5437     1
40.5562     0
40.5687     0
40.5812     0
40.5937     1
40.6062     1
40.6187     0
40.6312     0
40.6437     0
40.6562     0
40.6687     0
40.6812     0
40.6938     0
40.7063     1
40.7188     0
40.7313     0
40.7438     0
40.7563     0
40.7688     0
40.7813     0
40.7938     0
40.8063     0
40.8188     0
40.8313     0
40.8438     0
40.8563     1
40.8689     0
40.8814     0
40.8939     0
40.9064     0
40.9189     0
40.9314     0
40.9439     0
40.9564     0
40.9689     0
40.9814     0
40.9939     1
41.0064     0
41.0189     0
41.0314     0
 41.044     0
41.0565     0
 41.069     0
41.0815     1
 41.094     0
41.1065     0
 41.119     0
41.1315     0
 41.144     0
41.1565     0
 41.169     0
41.1815     0
 41.194     1
41.2066     0
41.2191     1
41.2316     0
41.2441     0
41.2566     0
41.2691     0
41.2816     0
41.2941     0
41.3066     1
41.3191     0
41.3316     0
41.3441     0
41.3566     0
41.3691     0
41.3817     0
41.3942     0
41.4067     0
41.4192     0
41.4317     0
41.4442     0
41.4567     0
41.4692     0
41.4817     0
41.4942     0
41.5067     0
41.5192     0
41.5317     0
41.5442     0
41.5568     0
41.5693     0
41.5818     0
41.5943     0
41.6068     0
41.6193     0
41.6318     0
41.6443     0
41.6568     0
41.6693     0
41.6818     1
41.6943     0
41.7068     0
41.7193     0
41.7319     0
41.7444     0
41.7569     0
41.7694     0
41.7819     0
41.7944     1
41.8069     0
41.8194     1
41.8319     0
41.8444     0
41.8569     0
41.8694     0
41.8819     0
41.8945     0
 41.907     0
41.9195     0
 41.932     0
41.9445     0
 41.957     0
41.9695     0
 41.982     0
41.9945     0
 42.007     0
42.0195     0
 42.032     1
42.0445     1
 42.057     0
42.0696     0
42.0821     0
42.0946     0
42.1071     0
42.1196     0
42.1321     0
42.1446     0
42.1571     0
42.1696     0
42.1821     0
42.1946     0
42.2071     1
42.2196     0
42.2321     0
42.2447     0
42.2572     0
42.2697     0
42.2822     0
42.2947     0
42.3072     0
42.3197     0
42.3322     0
42.3447     0
42.3572     0
42.3697     0
42.3822     0
42.3947     0
42.4072     0
42.4198     0
42.4323     0
42.4448     0
42.4573     0
42.4698     1
42.4823     0
42.4948     0
42.5073     0
42.5198     0
42.5323     0
42.5448     0
42.5573     0
42.5698     0
42.5824     0
42.5949     0
42.6074     0
42.6199     0
42.6324     0
42.6449     0
42.6574     0
42.6699     1
42.6824     0
42.6949     0
42.7074     0
42.7199     0
42.7324     0
42.7449     0
42.7575     0
  42.77     0
42.7825     1
 42.795     0
42.8075     0
  42.82     0
42.8325     0
 42.845     0
42.8575     0
  42.87     0
42.8825     0
 42.895     0
42.9075     0
  42.92     0
42.9326     0
42.9451     0
42.9576     1
42.9701     0
42.9826     0
42.9951     0
43.0076     0
43.0201     0
43.0326     0
43.0451     0
43.0576     0
43.0701     0
43.0826     0
43.0951     0
43.1077     1
43.1202     0
43.1327     0
43.1452     0
43.1577     0
43.1702     0
43.1827     0
43.1952     0
43.2077     0
43.2202     0
43.2327     0
43.2452     0
43.2577     0
43.2703     0
43.2828     0
43.2953     0
43.3078     0
43.3203     0
43.3328     0
43.3453     0
43.3578     0
43.3703     0
43.3828     0
43.3953     0
43.4078     0
43.4203     0
43.4328     0
43.4454     0
43.4579     0
43.4704     0
43.4829     0
43.4954     0
43.5079     0
43.5204     0
43.5329     0
43.5454     0
43.5579     0
43.5704     0
43.5829     0
43.5954     0
43.6079     0
43.6205     0
 43.633     0
43.6455     0
 43.658     0
43.6705     0
 43.683     0
43.6955     0
 43.708     0
43.7205     0
 43.733     0
43.7455     0
 43.758     0
43.7705     0
 43.783     0
43.7956     0
43.8081     0
43.8206     0
43.8331     0
43.8456     0
43.8581     0
43.8706     0
43.8831     1
43.8956     0
43.9081     0
43.9206     0
43.9331     0
43.9456     0
43.9582     0
43.9707     0
43.9832     0
43.9957     0
44.0082     0
44.0207     0
44.0332     0
44.0457     0
44.0582     0
44.0707     0
44.0832     0
44.0957     0
44.1082     0
44.1207     0
44.1333     0
44.1458     0
44.1583     0
44.1708     0
44.1833     0
44.1958     0
44.2083     0
44.2208     0
44.2333     0
44.2458     0
44.2583     0
44.2708     0
44.2833     0
44.2958     0
44.3084     0
44.3209     0
44.3334     0
44.3459     0
44.3584     0
44.3709     0
44.3834     0
44.3959     0
44.4084     0
44.4209     0
44.4334     0
44.4459     0
44.4584     1
44.4709     0
44.4835     0
 44.496     0
44.5085     0
 44.521     0
44.5335     0
 44.546     0
44.5585     0
 44.571     0
44.5835     0
 44.596     0
44.6085     0
 44.621     0
44.6335     0
44.6461     0
44.6586     0
44.6711     0
44.6836     0
44.6961     0
44.7086     0
44.7211     0
44.7336     0
44.7461     1
44.7586     0
44.7711     0
44.7836     0
44.7961     0
44.8086     0
44.8212     0
44.8337     0
44.8462     0
44.8587     0
44.8712     0
44.8837     0
44.8962     0
44.9087     0
44.9212     0
44.9337     0
44.9462     0
44.9587     0
44.9712     0
44.9837     0
44.9963     0
45.0088     0
45.0213     0
45.0338     0
45.0463     0
45.0588     0
45.0713     0
45.0838     0
45.0963     0
45.1088     0
45.1213     0
45.1338     0
45.1463     0
45.1588     0
45.1714     0
45.1839     0
45.1964     0
45.2089     0
45.2214     0
45.2339     0
45.2464     0
45.2589     0
45.2714     0
45.2839     0
45.2964     0
45.3089     0
45.3214     0
 45.334     0
45.3465     0
 45.359     0
45.3715     0
 45.384     0
45.3965     0
 45.409     0
45.4215     0
 45.434     0
45.4465     0
 45.459     0
45.4715     0
 45.484     0
45.4965     0
45.5091     0
45.5216     0
45.5341     0
45.5466     0
45.5591     0
45.5716     0
45.5841     0
45.5966     0
45.6091     0
45.6216     0
45.6341     0
45.6466     0
45.6591     0
45.6716     0
45.6842     0
45.6967     0
45.7092     0
45.7217     0
45.7342     0
45.7467     0
45.7592     0
45.7717     0
45.7842     0
45.7967     0
45.8092     1
45.8217     0
45.8342     0
45.8467     0
45.8593     0
45.8718     0
45.8843     0
45.8968     0
45.9093     0
45.9218     0
45.9343     0
45.9468     0
45.9593     0
45.9718     0
45.9843     0
45.9968     0
46.0093     0
46.0219     0
46.0344     0
46.0469     0
46.0594     0
46.0719     0
46.0844     0
46.0969     0
46.1094     0
46.1219     0
46.1344     0
46.1469     0
46.1594     0
46.1719     0
46.1844     0
 46.197     0
46.2095     0
 46.222     0
46.2345     0
 46.247     0
46.2595     0
 46.272     0
46.2845     0
 46.297     0
46.3095     0
 46.322     0
46.3345     0
 46.347     0
46.3595     0
46.3721     0
46.3846     0
46.3971     0
46.4096     0
46.4221     0
46.4346     0
46.4471     0
46.4596     0
46.4721     0
46.4846     0
46.4971     0
46.5096     0
46.5221     0
46.5346     0
46.5472     0
46.5597     0
46.5722     0
46.5847     0
46.5972     1
46.6097     0
46.6222     0
46.6347     0
46.6472     0
46.6597     0
46.6722     0
46.6847     0
46.6972     0
46.7098     0
46.7223     0
46.7348     0
46.7473     0
46.7598     0
46.7723     0
46.7848     0
46.7973     0
46.8098     0
46.8223     0
46.8348     0
46.8473     0
46.8598     0
46.8723     0
46.8849     0
46.8974     0
46.9099     0
46.9224     0
46.9349     0
46.9474     0
46.9599     0
46.9724     0
46.9849     0
46.9974     0
47.0099     0
47.0224     0
47.0349     0
47.0474     0
  47.06     0
47.0725     0
 47.085     0
47.0975     0
  47.11     0
47.1225     0
 47.135     0
47.1475     0
  47.16     0
47.1725     0
 47.185     0
47.1975     0
  47.21     0
47.2225     0
47.2351     0
47.2476     0
47.2601     0
47.2726     0
47.2851     0
47.2976     0
47.3101     0
47.3226     0
47.3351     0
47.3476     0
47.3601     0
47.3726     0
47.3851     0
47.3977     0
47.4102     0
47.4227     0
47.4352     0
47.4477     0
47.4602     0
47.4727     0
47.4852     0
47.4977     0
47.5102     0
47.5227     0
47.5352     0
47.5477     0
47.5602     0
47.5728     0
47.5853     0
47.5978     0
47.6103     0
47.6228     0
47.6353     0
47.6478     0
47.6603     0
47.6728     0
47.6853     0
47.6978     0
47.7103     0
47.7228     0
47.7353     0
47.7479     0
47.7604     0
47.7729     0
47.7854     0
47.7979     0
47.8104     0
47.8229     0
47.8354     0
47.8479     0
47.8604     0
47.8729     0
47.8854     0
47.8979     0
47.9104     0
 47.923     0
47.9355     0
 47.948     0
47.9605     0
 47.973     0
47.9855     0
 47.998     0
48.0105     0
 48.023     0
48.0355     0
 48.048     0
48.0605     0
 48.073     0
48.0856     0
48.0981     0
48.1106     0
48.1231     0
48.1356     0
48.1481     0
48.1606     0
48.1731     0
48.1856     0
48.1981     0
48.2106     0
48.2231     0
48.2356     0
48.2481     0
48.2607     0
48.2732     0
48.2857     0
48.2982     0
48.3107     0
48.3232     0
48.3357     0
48.3482     0
48.3607     0
48.3732     0
48.3857     0
48.3982     0
48.4107     0
48.4232     0
48.4358     0
48.4483     0
48.4608     0
48.4733     0
48.4858     0
48.4983     0
48.5108     0
48.5233     0
48.5358     0
48.5483     0
48.5608     0
48.5733     0
48.5858     0
48.5983     0
48.6109     0
48.6234     0
48.6359     0
48.6484     0
48.6609     0
48.6734     0
48.6859     0
48.6984     0
48.7109     0
48.7234     0
48.7359     0
48.7484     0
48.7609     0
48.7735     0
 48.786     0
48.7985     0
 48.811     0
48.8235     0
 48.836     0
48.8485     0
 48.861     0
48.8735     0
 48.886     0
48.8985     0
 48.911     0
48.9235     0
 48.936     0
48.9486     0
48.9611     0
48.9736     0
48.9861     0
48.9986     0
49.0111     0
49.0236     0
49.0361     0
49.0486     0
49.0611     0
49.0736     0
49.0861     0
49.0986     0
49.1111     0
49.1237     0
49.1362     0
49.1487     0
49.1612     0
49.1737     0
49.1862     0
49.1987     0
49.2112     0
49.2237     0
49.2362     0
49.2487     0
49.2612     0
49.2737     0
49.2862     0
49.2988     0
49.3113     0
49.3238     0
49.3363     0
49.3488     0
49.3613     0
49.3738     0
49.3863     0
49.3988     0
49.4113     0
49.4238     0
49.4363     0
49.4488     0
49.4614     0
49.4739     0
49.4864     0
49.4989     0
49.5114     0
49.5239     0
49.5364     0
49.5489     0
49.5614     0
49.5739     0
49.5864     0
49.5989     0
49.6114     0
49.6239     0
49.6365     0
 49.649     0
49.6615     0
 49.674     0
49.6865     0
 49.699     0
49.7115     0
 49.724     0
49.7365     0
 49.749     0
49.7615     0
 49.774     0
49.7865     0
 49.799     0
49.8116     0
49.8241     0
49.8366     0
49.8491     0
49.8616     0
49.8741     0
49.8866     0
49.8991     0
49.9116     0
49.9241     0
49.9366     0
49.9491     0
49.9616     0
49.9741     0
49.9867     0
49.9992     0
50.0117     0
50.0242     0
