RÖNTEC GmbH Berlin, Germany
Quantax 1.2

Date: 3/3/2015 12:21:56 PM
Real time: 61354
Life time: 60004
Pulse density: 9864


Detector type: XFLASH 3001
Window type: 
Detector thickness: 0.45
Si dead layer:0

Calibration, lin.: 12.507
Calibration, abs.: -1193.107
Mn FWHM: 142.37
Fano factor: 0.105
Channels: 4096

Energy Counts
-1.1931     0
-1.1806     0
-1.1681     0
-1.1556     0
-1.1431     0
-1.1306     0
-1.1181     0
-1.1056     0
 -1.093     0
-1.0805     0
 -1.068     0
-1.0555     0
 -1.043     0
-1.0305     0
 -1.018     0
-1.0055     0
 -0.993     0
-0.9805     0
 -0.968     0
-0.9555     0
 -0.943     0
-0.9305     0
-0.9179     0
-0.9054     0
-0.8929     0
-0.8804     0
-0.8679     0
-0.8554     0
-0.8429     0
-0.8304     0
-0.8179     0
-0.8054     0
-0.7929     0
-0.7804     0
-0.7679     0
-0.7554     0
-0.7428     0
-0.7303     0
-0.7178     0
-0.7053     0
-0.6928     0
-0.6803     0
-0.6678     0
-0.6553     0
-0.6428     0
-0.6303     0
-0.6178     0
-0.6053     0
-0.5928     0
-0.5803     0
-0.5677     0
-0.5552     0
-0.5427     0
-0.5302     0
-0.5177     0
-0.5052     0
-0.4927     0
-0.4802     0
-0.4677     0
-0.4552     0
-0.4427     0
-0.4302     0
-0.4177     0
-0.4051     0
-0.3926     0
-0.3801     0
-0.3676     0
-0.3551     0
-0.3426     0
-0.3301     0
-0.3176     0
-0.3051     0
-0.2926     0
-0.2801     0
-0.2676     0
-0.2551     0
-0.2426     0
  -0.23     0
-0.2175     0
 -0.205     0
-0.1925     0
  -0.18     0
-0.1675     0
 -0.155     3
-0.1425     1
  -0.13    20
-0.1175    71
 -0.105   265
-0.0925   822
  -0.08  2559
-0.0675  6208
-0.0549 13552
-0.0424 25630
-0.0299 42916
-0.0174 62562
-0.0049 78030
 0.0076 87328
 0.0201 83966
 0.0326 71452
 0.0451 52849
 0.0576 34190
 0.0701 19666
 0.0826  9749
 0.0951  4180
 0.1076  1510
 0.1202   535
 0.1327   146
 0.1452    44
 0.1577    16
 0.1702     5
 0.1827     1
 0.1952     1
 0.2077     5
 0.2202     0
 0.2327     1
 0.2452     1
 0.2577     1
 0.2702     0
 0.2828     0
 0.2953     3
 0.3078     0
 0.3203     1
 0.3328     0
 0.3453     0
 0.3578     1
 0.3703     0
 0.3828     0
 0.3953     0
 0.4078     0
 0.4203     1
 0.4328     5
 0.4453    30
 0.4579    45
 0.4704    69
 0.4829    52
 0.4954    65
 0.5079    59
 0.5204    75
 0.5329    62
 0.5454    73
 0.5579    58
 0.5704    69
 0.5829    60
 0.5954    76
 0.6079    66
 0.6204    65
  0.633    72
 0.6455    70
  0.658    53
 0.6705    68
  0.683    57
 0.6955    68
  0.708    56
 0.7205    51
  0.733    55
 0.7455    53
  0.758    46
 0.7705    42
  0.783    52
 0.7955    37
 0.8081    42
 0.8206    45
 0.8331    38
 0.8456    44
 0.8581    31
 0.8706    40
 0.8831    39
 0.8956    32
 0.9081    35
 0.9206    41
 0.9331    35
 0.9456    35
 0.9581    41
 0.9707    43
 0.9832    32
 0.9957    37
 1.0082    34
 1.0207    32
 1.0332    26
 1.0457    30
 1.0582    31
 1.0707    33
 1.0832    38
 1.0957    36
 1.1082    27
 1.1207    34
 1.1332    25
 1.1458    29
 1.1583    25
 1.1708    43
 1.1833    30
 1.1958    32
 1.2083    28
 1.2208    29
 1.2333    34
 1.2458    33
 1.2583    31
 1.2708    33
 1.2833    36
 1.2958    23
 1.3083    27
 1.3209    26
 1.3334    22
 1.3459    34
 1.3584    29
 1.3709    15
 1.3834    23
 1.3959    30
 1.4084    31
 1.4209    26
 1.4334    32
 1.4459    25
 1.4584    20
 1.4709    26
 1.4834    21
  1.496    26
 1.5085    24
  1.521    26
 1.5335    24
  1.546    35
 1.5585    13
  1.571    33
 1.5835    23
  1.596    19
 1.6085    19
  1.621    24
 1.6335    27
  1.646    30
 1.6586    22
 1.6711    29
 1.6836    30
 1.6961    28
 1.7086    23
 1.7211    18
 1.7336    24
 1.7461    23
 1.7586    21
 1.7711    31
 1.7836    36
 1.7961    46
 1.8086    44
 1.8211    38
 1.8337    41
 1.8462    59
 1.8587    42
 1.8712    54
 1.8837    46
 1.8962    41
 1.9087    43
 1.9212    33
 1.9337    27
 1.9462    42
 1.9587    39
 1.9712    28
 1.9837    33
 1.9962    26
 2.0088    27
 2.0213    29
 2.0338    38
 2.0463    26
 2.0588    36
 2.0713    30
 2.0838    27
 2.0963    40
 2.1088    44
 2.1213    38
 2.1338    40
 2.1463    42
 2.1588    47
 2.1713    46
 2.1839    57
 2.1964    59
 2.2089    57
 2.2214    73
 2.2339    73
 2.2464   111
 2.2589   145
 2.2714   218
 2.2839   234
 2.2964   376
 2.3089   515
 2.3214   657
 2.3339   833
 2.3465   997
  2.359  1163
 2.3715  1017
  2.384  1149
 2.3965  1081
  2.409  1117
 2.4215  1029
  2.434  1058
 2.4465  1054
  2.459  1007
 2.4715   877
  2.484   779
 2.4965   683
  2.509   566
 2.5216   409
 2.5341   291
 2.5466   226
 2.5591   152
 2.5716   132
 2.5841    81
 2.5966    71
 2.6091    89
 2.6216    64
 2.6341    77
 2.6466    89
 2.6591    87
 2.6716    91
 2.6841    95
 2.6967    88
 2.7092    76
 2.7217    63
 2.7342    61
 2.7467    36
 2.7592    40
 2.7717    23
 2.7842    32
 2.7967    26
 2.8092    25
 2.8217    30
 2.8342    35
 2.8467    28
 2.8592    28
 2.8718    42
 2.8843    33
 2.8968    38
 2.9093    39
 2.9218    37
 2.9343    37
 2.9468    55
 2.9593    41
 2.9718    61
 2.9843    53
 2.9968    50
 3.0093    49
 3.0218    45
 3.0344    40
 3.0469    54
 3.0594    52
 3.0719    45
 3.0844    51
 3.0969    62
 3.1094    52
 3.1219    48
 3.1344    51
 3.1469    48
 3.1594    46
 3.1719    38
 3.1844    38
 3.1969    50
 3.2095    33
  3.222    35
 3.2345    37
  3.247    28
 3.2595    30
  3.272    22
 3.2845    19
  3.297    26
 3.3095    36
  3.322    19
 3.3345    20
  3.347    16
 3.3595    18
  3.372    21
 3.3846    23
 3.3971    24
 3.4096    21
 3.4221    20
 3.4346    20
 3.4471    21
 3.4596    18
 3.4721    21
 3.4846    14
 3.4971    25
 3.5096    21
 3.5221    28
 3.5346    19
 3.5471    35
 3.5597    31
 3.5722    38
 3.5847    28
 3.5972    35
 3.6097    37
 3.6222    33
 3.6347    34
 3.6472    47
 3.6597    49
 3.6722    51
 3.6847    61
 3.6972    67
 3.7097    64
 3.7223    68
 3.7348    70
 3.7473    46
 3.7598    37
 3.7723    42
 3.7848    31
 3.7973    31
 3.8098    34
 3.8223    28
 3.8348    21
 3.8473    26
 3.8598    15
 3.8723    23
 3.8848    21
 3.8974    20
 3.9099    30
 3.9224    16
 3.9349    19
 3.9474    20
 3.9599    28
 3.9724    21
 3.9849    17
 3.9974    23
 4.0099    24
 4.0224    30
 4.0349    29
 4.0474    24
 4.0599    25
 4.0725    19
  4.085    18
 4.0975    15
   4.11    17
 4.1225    19
  4.135    13
 4.1475    16
   4.16    26
 4.1725    12
  4.185    22
 4.1975    25
   4.21    19
 4.2225    23
  4.235    14
 4.2476    16
 4.2601    22
 4.2726    28
 4.2851    25
 4.2976    13
 4.3101    20
 4.3226    27
 4.3351    21
 4.3476    26
 4.3601    17
 4.3726    28
 4.3851    17
 4.3976    18
 4.4102    16
 4.4227    29
 4.4352    32
 4.4477    31
 4.4602    29
 4.4727    24
 4.4852    24
 4.4977    17
 4.5102    22
 4.5227    26
 4.5352    24
 4.5477    25
 4.5602    25
 4.5727    18
 4.5853    24
 4.5978    28
 4.6103    20
 4.6228    23
 4.6353    27
 4.6478    14
 4.6603    17
 4.6728    22
 4.6853    21
 4.6978    10
 4.7103    21
 4.7228    19
 4.7353    21
 4.7478    29
 4.7604    15
 4.7729    21
 4.7854    20
 4.7979    27
 4.8104    24
 4.8229    20
 4.8354    22
 4.8479    15
 4.8604    19
 4.8729    24
 4.8854    15
 4.8979    20
 4.9104    20
 4.9229    17
 4.9355    17
  4.948    24
 4.9605    20
  4.973    17
 4.9855    25
  4.998    13
 5.0105    18
  5.023    20
 5.0355    26
  5.048    17
 5.0605    18
  5.073    15
 5.0855    19
 5.0981    18
 5.1106    27
 5.1231    20
 5.1356    20
 5.1481    31
 5.1606    19
 5.1731    28
 5.1856    33
 5.1981    24
 5.2106    29
 5.2231    27
 5.2356    27
 5.2481    24
 5.2606    30
 5.2732    25
 5.2857    36
 5.2982    19
 5.3107    18
 5.3232    28
 5.3357    24
 5.3482    27
 5.3607    22
 5.3732    20
 5.3857    29
 5.3982    24
 5.4107    22
 5.4232    24
 5.4357    26
 5.4483    23
 5.4608    26
 5.4733    20
 5.4858    23
 5.4983    25
 5.5108    24
 5.5233    26
 5.5358    27
 5.5483    33
 5.5608    32
 5.5733    29
 5.5858    29
 5.5983    28
 5.6108    29
 5.6234    24
 5.6359    25
 5.6484    30
 5.6609    28
 5.6734    26
 5.6859    44
 5.6984    32
 5.7109    32
 5.7234    37
 5.7359    30
 5.7484    35
 5.7609    45
 5.7734    44
  5.786    32
 5.7985    38
  5.811    27
 5.8235    33
  5.836    38
 5.8485    41
  5.861    40
 5.8735    40
  5.886    32
 5.8985    58
  5.911    51
 5.9235    36
  5.936    41
 5.9485    31
 5.9611    37
 5.9736    40
 5.9861    27
 5.9986    23
 6.0111    33
 6.0236    32
 6.0361    48
 6.0486    34
 6.0611    25
 6.0736    35
 6.0861    35
 6.0986    32
 6.1111    32
 6.1236    33
 6.1362    32
 6.1487    28
 6.1612    22
 6.1737    26
 6.1862    30
 6.1987    29
 6.2112    36
 6.2237    37
 6.2362    32
 6.2487    26
 6.2612    34
 6.2737    48
 6.2862    41
 6.2988    42
 6.3113    35
 6.3238    53
 6.3363    59
 6.3488    81
 6.3613    72
 6.3738    65
 6.3863    65
 6.3988    60
 6.4113    71
 6.4238    45
 6.4363    61
 6.4488    60
 6.4613    68
 6.4739    65
 6.4864    54
 6.4989    47
 6.5114    45
 6.5239    47
 6.5364    43
 6.5489    46
 6.5614    35
 6.5739    40
 6.5864    41
 6.5989    32
 6.6114    36
 6.6239    48
 6.6364    48
  6.649    51
 6.6615    44
  6.674    39
 6.6865    44
  6.699    39
 6.7115    35
  6.724    54
 6.7365    42
  6.749    49
 6.7615    43
  6.774    46
 6.7865    41
  6.799    36
 6.8115    36
 6.8241    41
 6.8366    39
 6.8491    50
 6.8616    53
 6.8741    58
 6.8866    41
 6.8991    50
 6.9116    53
 6.9241    51
 6.9366    45
 6.9491    63
 6.9616    39
 6.9741    42
 6.9867    39
 6.9992    52
 7.0117    50
 7.0242    59
 7.0367    41
 7.0492    60
 7.0617    47
 7.0742    53
 7.0867    62
 7.0992    69
 7.1117    56
 7.1242    52
 7.1367    50
 7.1492    51
 7.1618    57
 7.1743    54
 7.1868    60
 7.1993    60
 7.2118    50
 7.2243    57
 7.2368    44
 7.2493    55
 7.2618    53
 7.2743    56
 7.2868    47
 7.2993    56
 7.3118    70
 7.3243    72
 7.3369    79
 7.3494    94
 7.3619    87
 7.3744    95
 7.3869   112
 7.3994   116
 7.4119   109
 7.4244    97
 7.4369    99
 7.4494    68
 7.4619    76
 7.4744    89
 7.4869    84
 7.4994    75
  7.512    77
 7.5245    77
  7.537    51
 7.5495    74
  7.562    59
 7.5745    61
  7.587    72
 7.5995    56
  7.612    58
 7.6245    60
  7.637    65
 7.6495    67
  7.662    64
 7.6746    53
 7.6871    53
 7.6996    51
 7.7121    76
 7.7246    59
 7.7371    70
 7.7496    63
 7.7621    64
 7.7746    53
 7.7871    61
 7.7996    60
 7.8121    63
 7.8246    69
 7.8371    58
 7.8497    59
 7.8622    80
 7.8747    63
 7.8872    72
 7.8997    84
 7.9122    81
 7.9247    85
 7.9372    83
 7.9497   104
 7.9622   110
 7.9747   100
 7.9872   117
 7.9997   134
 8.0122   131
 8.0248   148
 8.0373   135
 8.0498   151
 8.0623   158
 8.0748   146
 8.0873   127
 8.0998   134
 8.1123   132
 8.1248   136
 8.1373   115
 8.1498   119
 8.1623   114
 8.1748   128
 8.1873   123
 8.1999   134
 8.2124   146
 8.2249   168
 8.2374   227
 8.2499   270
 8.2624   292
 8.2749   395
 8.2874   534
 8.2999   605
 8.3124   684
 8.3249   841
 8.3374   948
 8.3499  1033
 8.3625  1191
  8.375  1176
 8.3875  1283
    8.4  1296
 8.4125  1243
  8.425  1170
 8.4375  1046
   8.45   928
 8.4625   776
  8.475   679
 8.4875   579
    8.5   449
 8.5125   370
  8.525   284
 8.5376   224
 8.5501   182
 8.5626   140
 8.5751   105
 8.5876   106
 8.6001   114
 8.6126    91
 8.6251    86
 8.6376    84
 8.6501    91
 8.6626    91
 8.6751   108
 8.6876   110
 8.7001    93
 8.7127   122
 8.7252   100
 8.7377   101
 8.7502   109
 8.7627   113
 8.7752    91
 8.7877   107
 8.8002    90
 8.8127   119
 8.8252   106
 8.8377   113
 8.8502   105
 8.8627    98
 8.8752    96
 8.8878   104
 8.9003    81
 8.9128   109
 8.9253    90
 8.9378   102
 8.9503    81
 8.9628   105
 8.9753   125
 8.9878   115
 9.0003   121
 9.0128   141
 9.0253   187
 9.0378   204
 9.0504   238
 9.0629   264
 9.0754   312
 9.0879   363
 9.1004   432
 9.1129   515
 9.1254   526
 9.1379   630
 9.1504   637
 9.1629   717
 9.1754   694
 9.1879   769
 9.2004   726
 9.2129   719
 9.2255   636
  9.238   593
 9.2505   574
  9.263   499
 9.2755   424
  9.288   347
 9.3005   334
  9.313   264
 9.3255   284
  9.338   233
 9.3505   198
  9.363   190
 9.3755   183
  9.388   175
 9.4006   166
 9.4131   200
 9.4256   201
 9.4381   202
 9.4506   226
 9.4631   226
 9.4756   239
 9.4881   248
 9.5006   336
 9.5131   313
 9.5256   364
 9.5381   367
 9.5506   451
 9.5631   501
 9.5757   596
 9.5882   604
 9.6007   681
 9.6132   713
 9.6257   795
 9.6382   797
 9.6507   903
 9.6632   904
 9.6757   932
 9.6882   866
 9.7007   856
 9.7132   808
 9.7257   714
 9.7383   647
 9.7508   578
 9.7633   582
 9.7758   491
 9.7883   453
 9.8008   448
 9.8133   375
 9.8258   409
 9.8383   422
 9.8508   438
 9.8633   387
 9.8758   397
 9.8883   436
 9.9008   463
 9.9134   487
 9.9259   448
 9.9384   514
 9.9509   481
 9.9634   467
 9.9759   494
 9.9884   479
10.0009   438
10.0134   399
10.0259   364
10.0384   345
10.0509   294
10.0634   267
10.0759   236
10.0885   222
 10.101   188
10.1135   166
 10.126   160
10.1385   156
 10.151   153
10.1635   126
 10.176   143
10.1885   172
 10.201   169
10.2135   168
 10.226   175
10.2385   205
 10.251   212
10.2636   245
10.2761   328
10.2886   355
10.3011   484
10.3136   671
10.3261   801
10.3386  1023
10.3511  1325
10.3636  1575
10.3761  2156
10.3886  2582
10.4011  3236
10.4136  4124
10.4262  5025
10.4387  5920
10.4512  7056
10.4637  8270
10.4762  9385
10.4887 10733
10.5012 11368
10.5137 11978
10.5262 12570
10.5387 13062
10.5512 12710
10.5637 12298
10.5762 11737
10.5887 10737
10.6013  9787
10.6138  8482
10.6263  7378
10.6388  6155
10.6513  5001
10.6638  3892
10.6763  3121
10.6888  2386
10.7013  1782
10.7138  1371
10.7263   957
10.7388   691
10.7513   531
10.7638   389
10.7764   294
10.7889   233
10.8014   212
10.8139   153
10.8264   136
10.8389   151
10.8514   119
10.8639   115
10.8764    90
10.8889   116
10.9014   102
10.9139    98
10.9264    77
10.9389    93
10.9515    86
 10.964    88
10.9765    94
 10.989    90
11.0015    74
 11.014    90
11.0265    74
 11.039    67
11.0515    76
 11.064    78
11.0765    74
 11.089    82
11.1015    91
11.1141    89
11.1266   102
11.1391    94
11.1516    98
11.1641   119
11.1766   152
11.1891   128
11.2016   173
11.2141   196
11.2266   219
11.2391   230
11.2516   266
11.2641   281
11.2766   274
11.2892   334
11.3017   325
11.3142   373
11.3267   307
11.3392   307
11.3517   298
11.3642   326
11.3767   274
11.3892   238
11.4017   235
11.4142   238
11.4267   189
11.4392   184
11.4517   151
11.4643   135
11.4768   136
11.4893   122
11.5018    93
11.5143    84
11.5268   103
11.5393    86
11.5518    84
11.5643    96
11.5768    73
11.5893    84
11.6018    88
11.6143    70
11.6268    79
11.6394    76
11.6519    84
11.6644    96
11.6769    83
11.6894    74
11.7019    73
11.7144    75
11.7269    86
11.7394    72
11.7519    81
11.7644    82
11.7769    84
11.7894    73
 11.802    71
11.8145    64
 11.827    87
11.8395    71
 11.852    84
11.8645    93
 11.877    72
11.8895    76
 11.902    80
11.9145    82
 11.927    93
11.9395    88
 11.952    97
11.9645   100
11.9771    89
11.9896   121
12.0021   133
12.0146   137
12.0271   167
12.0396   190
12.0521   240
12.0646   239
12.0771   251
12.0896   299
12.1021   289
12.1146   302
12.1271   378
12.1396   388
12.1522   419
12.1647   442
12.1772   474
12.1897   519
12.2022   506
12.2147   527
12.2272   614
12.2397   624
12.2522   667
12.2647   714
12.2772   673
12.2897   672
12.3022   703
12.3147   765
12.3273   713
12.3398   714
12.3523   675
12.3648   682
12.3773   749
12.3898   789
12.4023   928
12.4148  1077
12.4273  1310
12.4398  1605
12.4523  2078
12.4648  2600
12.4773  3108
12.4899  3692
12.5024  4691
12.5149  5475
12.5274  6158
12.5399  6929
12.5524  7900
12.5649  8631
12.5774  9247
12.5899  9479
12.6024  9625
12.6149  9435
12.6274  9388
12.6399  8800
12.6524  8329
 12.665  7580
12.6775  6818
  12.69  5957
12.7025  5103
 12.715  4467
12.7275  3821
  12.74  3118
12.7525  2575
 12.765  2061
12.7775  1898
  12.79  1488
12.8025  1386
 12.815  1141
12.8275   970
12.8401   862
12.8526   740
12.8651   627
12.8776   631
12.8901   530
12.9026   477
12.9151   464
12.9276   436
12.9401   419
12.9526   408
12.9651   390
12.9776   434
12.9901   439
13.0026   428
13.0152   414
13.0277   380
13.0402   323
13.0527   332
13.0652   305
13.0777   300
13.0902   251
13.1027   211
13.1152   193
13.1277   123
13.1402   142
13.1527   100
13.1652    94
13.1778    95
13.1903    69
13.2028    70
13.2153    54
13.2278    66
13.2403    66
13.2528    47
13.2653    48
13.2778    57
13.2903    68
13.3028    49
13.3153    55
13.3278    48
13.3403    55
13.3529    42
13.3654    47
13.3779    47
13.3904    45
13.4029    46
13.4154    53
13.4279    33
13.4404    37
13.4529    32
13.4654    30
13.4779    22
13.4904    29
13.5029    24
13.5154    23
 13.528    22
13.5405    21
 13.553    18
13.5655    19
 13.578    22
13.5905    22
 13.603    16
13.6155    17
 13.628    15
13.6405    18
 13.653    17
13.6655    21
 13.678    24
13.6905    20
13.7031    25
13.7156    16
13.7281    22
13.7406    21
13.7531    33
13.7656    21
13.7781    27
13.7906    14
13.8031    14
13.8156    21
13.8281    25
13.8406    23
13.8531    23
13.8657    20
13.8782    14
13.8907    21
13.9032    13
13.9157    19
13.9282    20
13.9407    23
13.9532    28
13.9657    19
13.9782    20
13.9907    14
14.0032    33
14.0157    20
14.0282    33
14.0408    23
14.0533    26
14.0658    19
14.0783    30
14.0908    23
14.1033    21
14.1158    27
14.1283    34
14.1408    24
14.1533    28
14.1658    34
14.1783    37
14.1908    39
14.2033    34
14.2159    39
14.2284    55
14.2409    59
14.2534    44
14.2659    55
14.2784    52
14.2909    66
14.3034    66
14.3159    53
14.3284    46
14.3409    48
14.3534    50
14.3659    47
14.3784    44
 14.391    37
14.4035    37
 14.416    41
14.4285    29
 14.441    48
14.4535    41
 14.466    41
14.4785    47
 14.491    53
14.5035    68
 14.516    72
14.5285    79
 14.541    85
14.5536   110
14.5661   159
14.5786   193
14.5911   238
14.6036   278
14.6161   358
14.6286   412
14.6411   465
14.6536   581
14.6661   577
14.6786   747
14.6911   773
14.7036   764
14.7161   888
14.7287   942
14.7412   942
14.7537   912
14.7662   861
14.7787   927
14.7912   792
14.8037   776
14.8162   660
14.8287   584
14.8412   483
14.8537   474
14.8662   362
14.8787   310
14.8912   272
14.9038   208
14.9163   173
14.9288   165
14.9413   153
14.9538   118
14.9663   122
14.9788   144
14.9913   148
15.0038   145
15.0163   158
15.0288   200
15.0413   221
15.0538   221
15.0663   235
15.0789   243
15.0914   250
15.1039   256
15.1164   249
15.1289   301
15.1414   265
15.1539   296
15.1664   280
15.1789   292
15.1914   288
15.2039   226
15.2164   238
15.2289   227
15.2415   205
 15.254   136
15.2665   140
 15.279   148
15.2915   128
 15.304    91
15.3165    70
 15.329    68
15.3415    65
 15.354    51
15.3665    36
 15.379    32
15.3915    22
 15.404    33
15.4166    25
15.4291    24
15.4416    15
15.4541    23
15.4666    14
15.4791    15
15.4916    17
15.5041    15
15.5166    13
15.5291    16
15.5416    20
15.5541    30
15.5666    11
15.5791    21
15.5917    28
15.6042    22
15.6167    24
15.6292    25
15.6417    32
15.6542    46
15.6667    42
15.6792    49
15.6917    43
15.7042    65
15.7167    70
15.7292    43
15.7417    58
15.7542    61
15.7668    48
15.7793    53
15.7918    44
15.8043    47
15.8168    41
15.8293    36
15.8418    30
15.8543    36
15.8668    25
15.8793    32
15.8918    30
15.9043    20
15.9168    21
15.9294    12
15.9419    14
15.9544    15
15.9669     4
15.9794     8
15.9919    11
16.0044    12
16.0169     9
16.0294     6
16.0419     6
16.0544    11
16.0669     4
16.0794    12
16.0919    12
16.1045     7
 16.117     6
16.1295    14
 16.142     5
16.1545     9
 16.167     4
16.1795    12
 16.192    11
16.2045     7
 16.217     7
16.2295    11
 16.242     8
16.2545     4
 16.267     7
16.2796     6
16.2921     7
16.3046     9
16.3171     7
16.3296     9
16.3421     7
16.3546     8
16.3671     5
16.3796    11
16.3921    10
16.4046     4
16.4171     4
16.4296     9
16.4421    16
16.4547    13
16.4672     8
16.4797     8
16.4922    11
16.5047    12
16.5172    10
16.5297    12
16.5422    12
16.5547     5
16.5672    13
16.5797     9
16.5922     9
16.6047    12
16.6173    10
16.6298    11
16.6423    13
16.6548    11
16.6673    13
16.6798    11
16.6923    14
16.7048     9
16.7173    12
16.7298    12
16.7423     8
16.7548     5
16.7673     8
16.7798    10
16.7924     8
16.8049     7
16.8174    13
16.8299    10
16.8424    10
16.8549     7
16.8674    10
16.8799     4
16.8924    10
16.9049     7
16.9174    11
16.9299     9
16.9424     6
16.9549     9
16.9675    17
  16.98    10
16.9925    17
 17.005     8
17.0175    12
  17.03    14
17.0425     6
 17.055    11
17.0675    13
  17.08     8
17.0925    10
 17.105     6
17.1175     5
  17.13    10
17.1426     6
17.1551    14
17.1676    10
17.1801     9
17.1926    14
17.2051     8
17.2176     8
17.2301    10
17.2426     7
17.2551     8
17.2676    14
17.2801    13
17.2926    10
17.3052     7
17.3177     9
17.3302     6
17.3427    10
17.3552     6
17.3677    10
17.3802    10
17.3927     9
17.4052    12
17.4177    12
17.4302     6
17.4427     9
17.4552    10
17.4677    11
17.4803     9
17.4928    11
17.5053    14
17.5178    16
17.5303    10
17.5428     5
17.5553    14
17.5678     6
17.5803    12
17.5928     8
17.6053     6
17.6178    15
17.6303    12
17.6428    11
17.6554     9
17.6679    15
17.6804    23
17.6929     9
17.7054    12
17.7179    13
17.7304    12
17.7429    10
17.7554    11
17.7679     8
17.7804    13
17.7929     7
17.8054    13
17.8179     4
17.8305     9
 17.843    12
17.8555     8
 17.868    14
17.8805    13
 17.893    16
17.9055    10
 17.918     5
17.9305     9
 17.943     6
17.9555    11
 17.968     8
17.9805    10
17.9931     9
18.0056     4
18.0181     6
18.0306     9
18.0431    10
18.0556    15
18.0681     5
18.0806     9
18.0931     9
18.1056    12
18.1181    10
18.1306     7
18.1431    11
18.1556    10
18.1682    13
18.1807    11
18.1932     8
18.2057    10
18.2182     6
18.2307    12
18.2432     9
18.2557    11
18.2682     9
18.2807    10
18.2932    10
18.3057    14
18.3182     8
18.3307    10
18.3433     8
18.3558    11
18.3683     9
18.3808     9
18.3933     3
18.4058     8
18.4183     6
18.4308    11
18.4433    12
18.4558     7
18.4683     4
18.4808    12
18.4933    10
18.5058    12
18.5184     7
18.5309    13
18.5434     8
18.5559    13
18.5684     5
18.5809     7
18.5934    10
18.6059    12
18.6184    11
18.6309     8
18.6434     3
18.6559    14
18.6684    14
 18.681     7
18.6935     9
 18.706    14
18.7185    10
 18.731    11
18.7435     8
 18.756     5
18.7685     9
 18.781    14
18.7935     8
 18.806    12
18.8185     7
 18.831     8
18.8435     6
18.8561     6
18.8686     4
18.8811     7
18.8936     2
18.9061    12
18.9186     5
18.9311    13
18.9436     6
18.9561    12
18.9686     9
18.9811    10
18.9936    18
19.0061    16
19.0186     5
19.0312     7
19.0437     7
19.0562     5
19.0687     8
19.0812     4
19.0937     7
19.1062     7
19.1187    17
19.1312     9
19.1437     4
19.1562     6
19.1687     6
19.1812    10
19.1937     8
19.2063     6
19.2188     5
19.2313     8
19.2438    15
19.2563     7
19.2688    14
19.2813     6
19.2938     9
19.3063     5
19.3188     9
19.3313     8
19.3438    10
19.3563     5
19.3689     8
19.3814    10
19.3939    12
19.4064    12
19.4189     6
19.4314    12
19.4439    14
19.4564     7
19.4689     7
19.4814    12
19.4939     6
19.5064     7
19.5189     7
19.5314     5
 19.544    13
19.5565    11
 19.569     4
19.5815     6
 19.594     7
19.6065     9
 19.619    13
19.6315    11
 19.644     8
19.6565     7
 19.669    11
19.6815     9
 19.694     7
19.7065     5
19.7191    11
19.7316     9
19.7441    10
19.7566     6
19.7691     7
19.7816    10
19.7941     3
19.8066     7
19.8191     8
19.8316     4
19.8441     6
19.8566     8
19.8691    10
19.8816     7
19.8942     9
19.9067     9
19.9192     8
19.9317    10
19.9442     9
19.9567     5
19.9692    11
19.9817    10
19.9942    11
20.0067     9
20.0192     7
20.0317     2
20.0442     9
20.0568    12
20.0693     8
20.0818     9
20.0943     9
20.1068    12
20.1193    13
20.1318    11
20.1443     9
20.1568    16
20.1693    17
20.1818     5
20.1943    11
20.2068    12
20.2193     7
20.2319     7
20.2444    13
20.2569     6
20.2694     9
20.2819     6
20.2944     5
20.3069     5
20.3194     7
20.3319     6
20.3444     6
20.3569     9
20.3694    11
20.3819    10
20.3944    12
 20.407    11
20.4195     9
 20.432     9
20.4445     8
 20.457     6
20.4695     3
 20.482     6
20.4945     7
 20.507    11
20.5195    11
 20.532     6
20.5445     9
 20.557     7
20.5695     4
20.5821    13
20.5946     7
20.6071    11
20.6196     8
20.6321     4
20.6446     9
20.6571    10
20.6696     8
20.6821     8
20.6946     9
20.7071    14
20.7196     8
20.7321    17
20.7447     8
20.7572    11
20.7697     7
20.7822    12
20.7947    12
20.8072     7
20.8197     7
20.8322     9
20.8447     9
20.8572    11
20.8697     8
20.8822    15
20.8947     7
20.9072    11
20.9198    12
20.9323    15
20.9448    12
20.9573    10
20.9698     8
20.9823     6
20.9948    21
21.0073    23
21.0198     7
21.0323    14
21.0448    12
21.0573     6
21.0698    17
21.0823    20
21.0949    14
21.1074    10
21.1199    10
21.1324     7
21.1449     7
21.1574    10
21.1699    18
21.1824     4
21.1949     9
21.2074     8
21.2199     7
21.2324     8
21.2449    12
21.2574     9
  21.27     7
21.2825     8
 21.295    13
21.3075     8
  21.32     9
21.3325     4
 21.345     5
21.3575     6
  21.37    12
21.3825     3
 21.395     9
21.4075     5
  21.42     5
21.4326    10
21.4451     8
21.4576     8
21.4701    10
21.4826     8
21.4951     8
21.5076     5
21.5201    11
21.5326    10
21.5451     7
21.5576     8
21.5701     3
21.5826     7
21.5951     4
21.6077     9
21.6202    11
21.6327    11
21.6452     5
21.6577     8
21.6702     8
21.6827     3
21.6952     7
21.7077    11
21.7202     8
21.7327     9
21.7452    10
21.7577     4
21.7702     7
21.7828     9
21.7953     8
21.8078     9
21.8203     9
21.8328     5
21.8453     4
21.8578     8
21.8703    14
21.8828     3
21.8953     6
21.9078    10
21.9203     7
21.9328     9
21.9453     7
21.9579     9
21.9704    11
21.9829     8
21.9954    10
22.0079     5
22.0204    12
22.0329     6
22.0454    10
22.0579    11
22.0704    12
22.0829     9
22.0954     5
22.1079    12
22.1205     7
 22.133     6
22.1455    10
 22.158    12
22.1705     5
 22.183     7
22.1955     8
 22.208     8
22.2205     5
 22.233    10
22.2455     3
 22.258     8
22.2705     6
 22.283    12
22.2956     8
22.3081     6
22.3206    12
22.3331    10
22.3456     8
22.3581     9
22.3706    12
22.3831     8
22.3956    15
22.4081     6
22.4206     9
22.4331     9
22.4456     3
22.4581     4
22.4707     9
22.4832     7
22.4957     8
22.5082     7
22.5207     5
22.5332     7
22.5457     5
22.5582     3
22.5707     5
22.5832     6
22.5957    11
22.6082     4
22.6207    10
22.6332     7
22.6458    10
22.6583     4
22.6708     4
22.6833     4
22.6958     6
22.7083     7
22.7208     6
22.7333     6
22.7458     6
22.7583     4
22.7708     9
22.7833     6
22.7958     5
22.8084    10
22.8209     4
22.8334     8
22.8459     8
22.8584     9
22.8709     7
22.8834    14
22.8959    10
22.9084     8
22.9209    13
22.9334     5
22.9459    10
22.9584    10
22.9709    13
22.9835    11
 22.996    13
23.0085    10
 23.021     9
23.0335    14
 23.046    11
23.0585     6
 23.071     9
23.0835    12
 23.096     9
23.1085    10
 23.121    20
23.1335    11
 23.146     9
23.1586     5
23.1711    13
23.1836    10
23.1961    11
23.2086    12
23.2211     3
23.2336     7
23.2461    10
23.2586    10
23.2711     7
23.2836    12
23.2961     1
23.3086    12
23.3211     4
23.3337    10
23.3462    10
23.3587     4
23.3712     7
23.3837     5
23.3962     7
23.4087     6
23.4212     9
23.4337     5
23.4462     6
23.4587     4
23.4712     9
23.4837     6
23.4963     3
23.5088    12
23.5213    10
23.5338    14
23.5463     8
23.5588     7
23.5713     5
23.5838    16
23.5963     4
23.6088     3
23.6213     7
23.6338     8
23.6463     5
23.6588     5
23.6714     8
23.6839     3
23.6964     3
23.7089     4
23.7214    12
23.7339     1
23.7464     4
23.7589     3
23.7714     2
23.7839     7
23.7964     6
23.8089     3
23.8214     9
23.8339     8
23.8465     4
 23.859     6
23.8715    11
 23.884     7
23.8965     4
 23.909     9
23.9215     8
 23.934     5
23.9465     6
 23.959     5
23.9715     6
 23.984     4
23.9965     8
 24.009     4
24.0216     3
24.0341    10
24.0466     4
24.0591     4
24.0716     5
24.0841    10
24.0966     6
24.1091     6
24.1216     6
24.1341     9
24.1466     6
24.1591     7
24.1716     5
24.1842     3
24.1967     4
24.2092     5
24.2217     5
24.2342     4
24.2467     6
24.2592     4
24.2717     1
24.2842     4
24.2967     7
24.3092     3
24.3217     4
24.3342     0
24.3467     3
24.3593     3
24.3718     2
24.3843     5
24.3968     8
24.4093     4
24.4218     7
24.4343     5
24.4468     6
24.4593     6
24.4718     7
24.4843     7
24.4968     6
24.5093     2
24.5218     4
24.5344     6
24.5469     4
24.5594     7
24.5719     4
24.5844     6
24.5969     2
24.6094     6
24.6219     5
24.6344     4
24.6469     9
24.6594     7
24.6719     5
24.6844     4
24.6969     4
24.7095     4
 24.722     2
24.7345     5
 24.747     6
24.7595     7
 24.772     9
24.7845    11
 24.797     4
24.8095     5
 24.822     5
24.8345     4
 24.847     5
24.8595     6
24.8721     4
24.8846     7
24.8971     5
24.9096     6
24.9221     5
24.9346     5
24.9471     5
24.9596    12
24.9721     7
24.9846     6
24.9971    10
25.0096     4
25.0221     7
25.0346     8
25.0472     6
25.0597    14
25.0722     8
25.0847     8
25.0972     7
25.1097     6
25.1222     4
25.1347    12
25.1472     8
25.1597     7
25.1722    10
25.1847     8
25.1972     7
25.2097     7
25.2223     8
25.2348     9
25.2473     8
25.2598    11
25.2723     9
25.2848    10
25.2973    10
25.3098    12
25.3223    10
25.3348     1
25.3473     7
25.3598     8
25.3723     4
25.3848     2
25.3974     4
25.4099     4
25.4224     3
25.4349     5
25.4474     4
25.4599     8
25.4724     4
25.4849     7
25.4974     6
25.5099     5
25.5224     5
25.5349     5
25.5474     8
  25.56     3
25.5725     1
 25.585     4
25.5975     6
  25.61     3
25.6225     1
 25.635     4
25.6475     8
  25.66     3
25.6725     6
 25.685     7
25.6975     1
  25.71     5
25.7225     5
25.7351     6
25.7476     6
25.7601     6
25.7726     3
25.7851     3
25.7976     7
25.8101     4
25.8226     7
25.8351     7
25.8476     1
25.8601     6
25.8726     1
25.8851     2
25.8976     6
25.9102     3
25.9227     5
25.9352     2
25.9477     5
25.9602    11
25.9727     4
25.9852     6
25.9977     5
26.0102     5
26.0227     4
26.0352     5
26.0477     2
26.0602     6
26.0727     7
26.0853     2
26.0978     6
26.1103     7
26.1228     6
26.1353     4
26.1478     6
26.1603     4
26.1728     9
26.1853     3
26.1978    10
26.2103     7
26.2228     8
26.2353     8
26.2479     6
26.2604     3
26.2729     6
26.2854     4
26.2979     6
26.3104     8
26.3229     7
26.3354     8
26.3479     6
26.3604     4
26.3729     7
26.3854     4
26.3979     7
26.4104    11
 26.423     4
26.4355     4
 26.448     1
26.4605     6
 26.473     5
26.4855     9
 26.498     4
26.5105     4
 26.523     6
26.5355     8
 26.548     8
26.5605     3
 26.573     5
26.5855     4
26.5981     3
26.6106     2
26.6231     3
26.6356     6
26.6481     2
26.6606     5
26.6731     3
26.6856     1
26.6981     6
26.7106     4
26.7231     5
26.7356     6
26.7481     1
26.7606     5
26.7732     7
26.7857     5
26.7982     8
26.8107     5
26.8232     2
26.8357     5
26.8482     7
26.8607     4
26.8732     4
26.8857     3
26.8982     3
26.9107     4
26.9232     4
26.9358     4
26.9483     7
26.9608     4
26.9733     7
26.9858     2
26.9983     5
27.0108     6
27.0233     2
27.0358     4
27.0483     3
27.0608     2
27.0733     2
27.0858     1
27.0983     3
27.1109     1
27.1234     2
27.1359     4
27.1484     3
27.1609     2
27.1734     6
27.1859     2
27.1984     5
27.2109     4
27.2234     3
27.2359     6
27.2484     2
27.2609     5
27.2734     6
 27.286     9
27.2985     8
 27.311     5
27.3235     4
 27.336     3
27.3485     2
 27.361     8
27.3735     7
 27.386     2
27.3985     4
 27.411     1
27.4235     3
 27.436     5
27.4485     3
27.4611     1
27.4736     5
27.4861     1
27.4986     5
27.5111     3
27.5236     7
27.5361     7
27.5486     3
27.5611     8
27.5736     4
27.5861     4
27.5986     1
27.6111     3
27.6237     3
27.6362     1
27.6487     1
27.6612     2
27.6737     1
27.6862     2
27.6987     2
27.7112     7
27.7237     4
27.7362     3
27.7487     3
27.7612     6
27.7737     1
27.7862     4
27.7988     1
27.8113     6
27.8238     2
27.8363     1
27.8488     8
27.8613     2
27.8738     2
27.8863     4
27.8988     1
27.9113     1
27.9238     3
27.9363     4
27.9488     3
27.9613     6
27.9739     3
27.9864     3
27.9989     7
28.0114     3
28.0239     0
28.0364     1
28.0489     1
28.0614     2
28.0739     1
28.0864     6
28.0989     3
28.1114     3
28.1239     2
28.1364     2
 28.149     2
28.1615     3
 28.174     3
28.1865     7
 28.199     1
28.2115     0
 28.224     5
28.2365     2
 28.249     2
28.2615     5
 28.274     4
28.2865     1
 28.299     2
28.3116     4
28.3241     4
28.3366     1
28.3491     3
28.3616     2
28.3741     1
28.3866     7
28.3991     3
28.4116     7
28.4241     3
28.4366     2
28.4491     3
28.4616     1
28.4741     1
28.4867     3
28.4992     2
28.5117     2
28.5242     0
28.5367     5
28.5492     1
28.5617     3
28.5742     2
28.5867     4
28.5992     3
28.6117     4
28.6242     5
28.6367     2
28.6492     4
28.6618     3
28.6743     4
28.6868     1
28.6993     1
28.7118     1
28.7243     3
28.7368     3
28.7493     4
28.7618     1
28.7743     6
28.7868     1
28.7993     3
28.8118     7
28.8243     3
28.8369     1
28.8494     4
28.8619     5
28.8744     1
28.8869     2
28.8994     3
28.9119     5
28.9244     2
28.9369     5
28.9494     3
28.9619     4
28.9744     3
28.9869     3
28.9995     2
 29.012     2
29.0245     1
 29.037     3
29.0495     2
 29.062     2
29.0745     3
 29.087     5
29.0995     3
 29.112     5
29.1245     2
 29.137     2
29.1495     0
 29.162     3
29.1746     2
29.1871     3
29.1996     3
29.2121     3
29.2246     5
29.2371     6
29.2496     3
29.2621     5
29.2746     4
29.2871     2
29.2996     4
29.3121     2
29.3246     5
29.3371     3
29.3497     4
29.3622     0
29.3747     4
29.3872     4
29.3997     1
29.4122     1
29.4247     1
29.4372     3
29.4497     2
29.4622     1
29.4747     3
29.4872     3
29.4997     4
29.5123     1
29.5248     4
29.5373     4
29.5498     2
29.5623     5
29.5748     2
29.5873     1
29.5998     4
29.6123     0
29.6248     4
29.6373     0
29.6498     3
29.6623     4
29.6748     2
29.6874     4
29.6999     3
29.7124     1
29.7249     4
29.7374     4
29.7499     4
29.7624     3
29.7749     0
29.7874     3
29.7999     4
29.8124     3
29.8249     2
29.8374     0
29.8499     2
29.8625     7
 29.875     4
29.8875     2
   29.9     5
29.9125     2
 29.925     1
29.9375     2
  29.95     1
29.9625     6
 29.975     4
29.9875     1
     30     4
30.0125     3
 30.025     4
30.0376     3
30.0501     1
30.0626     3
30.0751     3
30.0876     1
30.1001     2
30.1126     6
30.1251     2
30.1376     1
30.1501     3
30.1626     1
30.1751     3
30.1876     1
30.2002     3
30.2127     1
30.2252     3
30.2377     1
30.2502     4
30.2627     1
30.2752     1
30.2877     0
30.3002     4
30.3127     2
30.3252     2
30.3377     2
30.3502     2
30.3627     3
30.3753     3
30.3878     3
30.4003     4
30.4128     1
30.4253     0
30.4378     3
30.4503     1
30.4628     3
30.4753     2
30.4878     4
30.5003     1
30.5128     3
30.5253     4
30.5378     4
30.5504     3
30.5629     0
30.5754     6
30.5879     3
30.6004     4
30.6129     3
30.6254     2
30.6379     1
30.6504     3
30.6629     2
30.6754     3
30.6879     4
30.7004     2
30.7129     3
30.7255     4
 30.738     1
30.7505     3
 30.763     1
30.7755     4
 30.788     2
30.8005     2
 30.813     5
30.8255     4
 30.838     1
30.8505     1
 30.863     2
30.8755     1
30.8881     1
30.9006     1
30.9131     1
30.9256     1
30.9381     2
30.9506     2
30.9631     3
30.9756     3
30.9881     1
31.0006     8
31.0131     3
31.0256     4
31.0381     1
31.0506     1
31.0632     2
31.0757     4
31.0882     2
31.1007     2
31.1132     1
31.1257     1
31.1382     4
31.1507     1
31.1632     0
31.1757     3
31.1882     1
31.2007     1
31.2132     1
31.2257     2
31.2383     1
31.2508     2
31.2633     5
31.2758     4
31.2883     1
31.3008     1
31.3133     1
31.3258     0
31.3383     0
31.3508     1
31.3633     1
31.3758     5
31.3883     4
31.4008     2
31.4134     0
31.4259     0
31.4384     2
31.4509     3
31.4634     1
31.4759     1
31.4884     1
31.5009     1
31.5134     0
31.5259     0
31.5384     1
31.5509     5
31.5634     4
 31.576     1
31.5885     1
 31.601     1
31.6135     3
 31.626     2
31.6385     2
 31.651     1
31.6635     5
 31.676     1
31.6885     3
 31.701     0
31.7135     2
 31.726     2
31.7385     2
31.7511     2
31.7636     1
31.7761     1
31.7886     2
31.8011     3
31.8136     6
31.8261     5
31.8386     0
31.8511     1
31.8636     3
31.8761     1
31.8886     1
31.9011     1
31.9136     2
31.9262     4
31.9387     1
31.9512     2
31.9637     3
31.9762     0
31.9887     1
32.0012     1
32.0137     5
32.0262     1
32.0387     4
32.0512     3
32.0637     2
32.0762     0
32.0887     0
32.1013     3
32.1138     2
32.1263     0
32.1388     3
32.1513     1
32.1638     0
32.1763     0
32.1888     2
32.2013     4
32.2138     2
32.2263     2
32.2388     1
32.2513     1
32.2639     1
32.2764     1
32.2889     1
32.3014     2
32.3139     1
32.3264     0
32.3389     0
32.3514     1
32.3639     3
32.3764     4
32.3889     2
32.4014     0
32.4139     0
32.4264     1
 32.439     0
32.4515     3
 32.464     3
32.4765     1
 32.489     1
32.5015     0
 32.514     7
32.5265     1
 32.539     4
32.5515     0
 32.564     0
32.5765     1
 32.589     1
32.6015     2
32.6141     2
32.6266     2
32.6391     1
32.6516     2
32.6641     4
32.6766     0
32.6891     4
32.7016     2
32.7141     1
32.7266     2
32.7391     2
32.7516     0
32.7641     2
32.7766     1
32.7892     4
32.8017     4
32.8142     1
32.8267     3
32.8392     2
32.8517     3
32.8642     2
32.8767     2
32.8892     1
32.9017     0
32.9142     0
32.9267     0
32.9392     0
32.9518     6
32.9643     0
32.9768     1
32.9893     2
33.0018     2
33.0143     2
33.0268     2
33.0393     0
33.0518     2
33.0643     3
33.0768     0
33.0893     0
33.1018     0
33.1143     0
33.1269     1
33.1394     1
33.1519     2
33.1644     0
33.1769     2
33.1894     2
33.2019     0
33.2144     3
33.2269     3
33.2394     1
33.2519     1
33.2644     0
33.2769     3
33.2894     1
 33.302     1
33.3145     0
 33.327     2
33.3395     3
 33.352     1
33.3645     3
 33.377     0
33.3895     1
 33.402     3
33.4145     1
 33.427     0
33.4395     2
 33.452     1
33.4645     0
33.4771     0
33.4896     0
33.5021     0
33.5146     2
33.5271     1
33.5396     1
33.5521     1
33.5646     0
33.5771     1
33.5896     0
33.6021     5
33.6146     0
33.6271     2
33.6397     4
33.6522     2
33.6647     1
33.6772     2
33.6897     2
33.7022     0
33.7147     0
33.7272     1
33.7397     0
33.7522     0
33.7647     2
33.7772     2
33.7897     1
33.8022     0
33.8148     1
33.8273     1
33.8398     0
33.8523     3
33.8648     0
33.8773     0
33.8898     2
33.9023     1
33.9148     3
33.9273     0
33.9398     1
33.9523     1
33.9648     1
33.9773     1
33.9899     2
34.0024     3
34.0149     0
34.0274     1
34.0399     3
34.0524     4
34.0649     2
34.0774     0
34.0899     0
34.1024     3
34.1149     2
34.1274     0
34.1399     4
34.1524     0
 34.165     2
34.1775     3
  34.19     3
34.2025     2
 34.215     0
34.2275     2
  34.24     0
34.2525     4
 34.265     0
34.2775     0
  34.29     1
34.3025     0
 34.315     0
34.3276     0
34.3401     1
34.3526     1
34.3651     2
34.3776     0
34.3901     1
34.4026     2
34.4151     0
34.4276     2
34.4401     1
34.4526     0
34.4651     2
34.4776     2
34.4901     2
34.5027     0
34.5152     2
34.5277     2
34.5402     0
34.5527     1
34.5652     1
34.5777     2
34.5902     0
34.6027     0
34.6152     0
34.6277     3
34.6402     1
34.6527     0
34.6652     0
34.6778     0
34.6903     0
34.7028     1
34.7153     2
34.7278     2
34.7403     1
34.7528     1
34.7653     1
34.7778     1
34.7903     0
34.8028     2
34.8153     1
34.8278     0
34.8403     0
34.8529     2
34.8654     0
34.8779     1
34.8904     0
34.9029     2
34.9154     3
34.9279     0
34.9404     0
34.9529     2
34.9654     1
34.9779     0
34.9904     2
35.0029     2
35.0155     0
 35.028     1
35.0405     1
 35.053     0
35.0655     2
 35.078     2
35.0905     1
 35.103     1
35.1155     1
 35.128     1
35.1405     0
 35.153     1
35.1655     2
 35.178     2
35.1906     1
35.2031     1
35.2156     0
35.2281     1
35.2406     0
35.2531     0
35.2656     2
35.2781     1
35.2906     1
35.3031     2
35.3156     0
35.3281     0
35.3406     0
35.3531     1
35.3657     1
35.3782     1
35.3907     0
35.4032     2
35.4157     0
35.4282     1
35.4407     1
35.4532     1
35.4657     1
35.4782     0
35.4907     1
35.5032     0
35.5157     0
35.5282     2
35.5408     3
35.5533     0
35.5658     1
35.5783     1
35.5908     1
35.6033     0
35.6158     1
35.6283     4
35.6408     2
35.6533     1
35.6658     1
35.6783     1
35.6908     1
35.7034     1
35.7159     2
35.7284     0
35.7409     1
35.7534     1
35.7659     2
35.7784     2
35.7909     1
35.8034     0
35.8159     1
35.8284     1
35.8409     2
35.8534     2
35.8659     0
35.8785     2
 35.891     0
35.9035     2
 35.916     1
35.9285     1
 35.941     1
35.9535     1
 35.966     0
35.9785     1
 35.991     0
36.0035     0
 36.016     0
36.0285     0
 36.041     0
36.0536     3
36.0661     1
36.0786     0
36.0911     2
36.1036     2
36.1161     0
36.1286     1
36.1411     0
36.1536     1
36.1661     3
36.1786     2
36.1911     2
36.2036     0
36.2161     0
36.2287     1
36.2412     0
36.2537     1
36.2662     1
36.2787     2
36.2912     0
36.3037     1
36.3162     0
36.3287     1
36.3412     2
36.3537     2
36.3662     1
36.3787     1
36.3913     0
36.4038     2
36.4163     1
36.4288     1
36.4413     2
36.4538     0
36.4663     1
36.4788     1
36.4913     0
36.5038     1
36.5163     0
36.5288     2
36.5413     1
36.5538     1
36.5664     0
36.5789     0
36.5914     0
36.6039     0
36.6164     0
36.6289     0
36.6414     1
36.6539     1
36.6664     0
36.6789     2
36.6914     1
36.7039     1
36.7164     1
36.7289     1
36.7415     0
 36.754     3
36.7665     1
 36.779     1
36.7915     1
 36.804     0
36.8165     0
 36.829     1
36.8415     1
 36.854     1
36.8665     2
 36.879     0
36.8915     0
 36.904     2
36.9166     1
36.9291     0
36.9416     3
36.9541     0
36.9666     1
36.9791     0
36.9916     0
37.0041     1
37.0166     1
37.0291     0
37.0416     1
37.0541     2
37.0666     3
37.0792     0
37.0917     1
37.1042     0
37.1167     1
37.1292     1
37.1417     1
37.1542     1
37.1667     0
37.1792     0
37.1917     1
37.2042     2
37.2167     0
37.2292     0
37.2417     0
37.2543     0
37.2668     2
37.2793     0
37.2918     1
37.3043     0
37.3168     0
37.3293     1
37.3418     1
37.3543     0
37.3668     0
37.3793     1
37.3918     0
37.4043     1
37.4168     0
37.4294     1
37.4419     1
37.4544     0
37.4669     2
37.4794     0
37.4919     1
37.5044     1
37.5169     0
37.5294     1
37.5419     2
37.5544     0
37.5669     0
37.5794     0
37.5919     1
37.6045     0
 37.617     1
37.6295     0
 37.642     1
37.6545     2
 37.667     0
37.6795     1
 37.692     0
37.7045     0
 37.717     2
37.7295     0
 37.742     0
37.7545     1
37.7671     0
37.7796     2
37.7921     0
37.8046     0
37.8171     1
37.8296     0
37.8421     1
37.8546     0
37.8671     0
37.8796     2
37.8921     0
37.9046     0
37.9171     0
37.9296     1
37.9422     1
37.9547     0
37.9672     0
37.9797     0
37.9922     1
38.0047     0
38.0172     1
38.0297     1
38.0422     1
38.0547     0
38.0672     0
38.0797     1
38.0922     0
38.1047     0
38.1173     1
38.1298     1
38.1423     0
38.1548     0
38.1673     0
38.1798     2
38.1923     1
38.2048     1
38.2173     3
38.2298     0
38.2423     1
38.2548     1
38.2673     1
38.2798     0
38.2924     1
38.3049     0
38.3174     0
38.3299     1
38.3424     0
38.3549     1
38.3674     1
38.3799     0
38.3924     0
38.4049     0
38.4174     2
38.4299     2
38.4424     0
 38.455     1
38.4675     0
  38.48     0
38.4925     1
 38.505     0
38.5175     1
  38.53     0
38.5425     0
 38.555     0
38.5675     1
  38.58     0
38.5925     0
 38.605     0
38.6175     1
38.6301     1
38.6426     1
38.6551     1
38.6676     0
38.6801     0
38.6926     0
38.7051     0
38.7176     0
38.7301     0
38.7426     0
38.7551     0
38.7676     1
38.7801     0
38.7926     1
38.8052     0
38.8177     1
38.8302     1
38.8427     0
38.8552     1
38.8677     1
38.8802     1
38.8927     0
38.9052     1
38.9177     1
38.9302     0
38.9427     0
38.9552     0
38.9677     1
38.9803     2
38.9928     0
39.0053     1
39.0178     2
39.0303     1
39.0428     0
39.0553     1
39.0678     1
39.0803     0
39.0928     0
39.1053     0
39.1178     2
39.1303     0
39.1429     0
39.1554     0
39.1679     0
39.1804     0
39.1929     0
39.2054     0
39.2179     0
39.2304     0
39.2429     1
39.2554     0
39.2679     0
39.2804     2
39.2929     0
39.3054     2
 39.318     1
39.3305     1
 39.343     0
39.3555     2
 39.368     2
39.3805     0
 39.393     0
39.4055     0
 39.418     1
39.4305     0
 39.443     0
39.4555     1
 39.468     0
39.4805     0
39.4931     0
39.5056     0
39.5181     1
39.5306     0
39.5431     0
39.5556     0
39.5681     3
39.5806     2
39.5931     0
39.6056     0
39.6181     1
39.6306     0
39.6431     3
39.6556     0
39.6682     0
39.6807     0
39.6932     1
39.7057     0
39.7182     0
39.7307     0
39.7432     1
39.7557     0
39.7682     1
39.7807     0
39.7932     0
39.8057     2
39.8182     0
39.8308     0
39.8433     0
39.8558     1
39.8683     0
39.8808     1
39.8933     0
39.9058     0
39.9183     0
39.9308     1
39.9433     1
39.9558     1
39.9683     1
39.9808     1
39.9933     0
40.0059     1
40.0184     1
40.0309     0
40.0434     1
40.0559     0
40.0684     0
40.0809     1
40.0934     0
40.1059     0
40.1184     0
40.1309     1
40.1434     0
40.1559     0
40.1684     1
 40.181     1
40.1935     0
 40.206     0
40.2185     0
 40.231     0
40.2435     0
 40.256     0
40.2685     1
 40.281     0
40.2935     0
 40.306     1
40.3185     1
 40.331     0
40.3435     1
40.3561     1
40.3686     0
40.3811     0
40.3936     1
40.4061     0
40.4186     2
40.4311     0
40.4436     0
40.4561     0
40.4686     1
40.4811     0
40.4936     2
40.5061     1
40.5187     0
40.5312     0
40.5437     1
40.5562     0
40.5687     0
40.5812     0
40.5937     0
40.6062     1
40.6187     1
40.6312     0
40.6437     0
40.6562     0
40.6687     0
40.6812     0
40.6938     0
40.7063     0
40.7188     2
40.7313     0
40.7438     0
40.7563     1
40.7688     1
40.7813     0
40.7938     0
40.8063     0
40.8188     0
40.8313     0
40.8438     1
40.8563     0
40.8689     0
40.8814     1
40.8939     0
40.9064     0
40.9189     0
40.9314     0
40.9439     0
40.9564     0
40.9689     0
40.9814     0
40.9939     0
41.0064     0
41.0189     0
41.0314     0
 41.044     0
41.0565     0
 41.069     1
41.0815     0
 41.094     0
41.1065     1
 41.119     0
41.1315     0
 41.144     0
41.1565     0
 41.169     0
41.1815     0
 41.194     0
41.2066     0
41.2191     0
41.2316     1
41.2441     1
41.2566     1
41.2691     0
41.2816     0
41.2941     0
41.3066     0
41.3191     1
41.3316     0
41.3441     0
41.3566     0
41.3691     1
41.3817     0
41.3942     1
41.4067     0
41.4192     0
41.4317     0
41.4442     0
41.4567     0
41.4692     0
41.4817     0
41.4942     0
41.5067     0
41.5192     0
41.5317     0
41.5442     1
41.5568     0
41.5693     0
41.5818     0
41.5943     0
41.6068     0
41.6193     0
41.6318     0
41.6443     0
41.6568     0
41.6693     0
41.6818     0
41.6943     0
41.7068     0
41.7193     0
41.7319     0
41.7444     0
41.7569     0
41.7694     0
41.7819     1
41.7944     0
41.8069     0
41.8194     0
41.8319     0
41.8444     1
41.8569     0
41.8694     1
41.8819     0
41.8945     0
 41.907     0
41.9195     0
 41.932     0
41.9445     0
 41.957     0
41.9695     0
 41.982     0
41.9945     0
 42.007     0
42.0195     0
 42.032     0
42.0445     0
 42.057     0
42.0696     0
42.0821     0
42.0946     0
42.1071     0
42.1196     0
42.1321     0
42.1446     0
42.1571     0
42.1696     0
42.1821     0
42.1946     0
42.2071     0
42.2196     0
42.2321     0
42.2447     0
42.2572     0
42.2697     1
42.2822     0
42.2947     0
42.3072     0
42.3197     1
42.3322     0
42.3447     0
42.3572     0
42.3697     0
42.3822     1
42.3947     0
42.4072     0
42.4198     0
42.4323     0
42.4448     0
42.4573     0
42.4698     0
42.4823     0
42.4948     0
42.5073     0
42.5198     0
42.5323     0
42.5448     0
42.5573     0
42.5698     0
42.5824     0
42.5949     0
42.6074     0
42.6199     0
42.6324     0
42.6449     0
42.6574     0
42.6699     0
42.6824     0
42.6949     0
42.7074     0
42.7199     0
42.7324     0
42.7449     0
42.7575     0
  42.77     0
42.7825     1
 42.795     0
42.8075     0
  42.82     0
42.8325     0
 42.845     0
42.8575     2
  42.87     0
42.8825     0
 42.895     0
42.9075     0
  42.92     0
42.9326     0
42.9451     0
42.9576     1
42.9701     0
42.9826     0
42.9951     0
43.0076     0
43.0201     1
43.0326     0
43.0451     0
43.0576     0
43.0701     0
43.0826     0
43.0951     0
43.1077     0
43.1202     0
43.1327     0
43.1452     0
43.1577     0
43.1702     0
43.1827     0
43.1952     1
43.2077     1
43.2202     0
43.2327     0
43.2452     0
43.2577     0
43.2703     0
43.2828     0
43.2953     0
43.3078     0
43.3203     0
43.3328     0
43.3453     0
43.3578     0
43.3703     0
43.3828     0
43.3953     0
43.4078     0
43.4203     0
43.4328     0
43.4454     0
43.4579     0
43.4704     0
43.4829     0
43.4954     0
43.5079     0
43.5204     0
43.5329     0
43.5454     0
43.5579     0
43.5704     0
43.5829     0
43.5954     0
43.6079     0
43.6205     0
 43.633     0
43.6455     0
 43.658     1
43.6705     0
 43.683     0
43.6955     0
 43.708     0
43.7205     1
 43.733     0
43.7455     0
 43.758     0
43.7705     0
 43.783     0
43.7956     0
43.8081     0
43.8206     0
43.8331     0
43.8456     0
43.8581     0
43.8706     0
43.8831     0
43.8956     0
43.9081     0
43.9206     0
43.9331     0
43.9456     1
43.9582     0
43.9707     0
43.9832     0
43.9957     0
44.0082     0
44.0207     0
44.0332     0
44.0457     0
44.0582     0
44.0707     0
44.0832     0
44.0957     0
44.1082     0
44.1207     0
44.1333     0
44.1458     0
44.1583     0
44.1708     0
44.1833     0
44.1958     0
44.2083     0
44.2208     0
44.2333     0
44.2458     0
44.2583     0
44.2708     0
44.2833     0
44.2958     0
44.3084     0
44.3209     0
44.3334     0
44.3459     0
44.3584     0
44.3709     0
44.3834     0
44.3959     0
44.4084     0
44.4209     0
44.4334     0
44.4459     0
44.4584     0
44.4709     0
44.4835     0
 44.496     0
44.5085     0
 44.521     0
44.5335     0
 44.546     0
44.5585     0
 44.571     0
44.5835     0
 44.596     0
44.6085     0
 44.621     0
44.6335     0
44.6461     0
44.6586     0
44.6711     0
44.6836     0
44.6961     0
44.7086     0
44.7211     0
44.7336     0
44.7461     0
44.7586     0
44.7711     0
44.7836     0
44.7961     0
44.8086     0
44.8212     0
44.8337     0
44.8462     0
44.8587     1
44.8712     0
44.8837     0
44.8962     0
44.9087     0
44.9212     0
44.9337     0
44.9462     0
44.9587     0
44.9712     0
44.9837     0
44.9963     0
45.0088     0
45.0213     0
45.0338     0
45.0463     0
45.0588     0
45.0713     0
45.0838     0
45.0963     0
45.1088     0
45.1213     0
45.1338     0
45.1463     0
45.1588     0
45.1714     0
45.1839     0
45.1964     0
45.2089     0
45.2214     0
45.2339     0
45.2464     0
45.2589     0
45.2714     0
45.2839     0
45.2964     0
45.3089     0
45.3214     0
 45.334     0
45.3465     0
 45.359     1
45.3715     0
 45.384     0
45.3965     0
 45.409     0
45.4215     0
 45.434     0
45.4465     0
 45.459     0
45.4715     0
 45.484     0
45.4965     0
45.5091     0
45.5216     0
45.5341     0
45.5466     0
45.5591     0
45.5716     0
45.5841     0
45.5966     0
45.6091     0
45.6216     0
45.6341     0
45.6466     0
45.6591     0
45.6716     0
45.6842     0
45.6967     0
45.7092     0
45.7217     0
45.7342     0
45.7467     0
45.7592     0
45.7717     0
45.7842     0
45.7967     0
45.8092     0
45.8217     0
45.8342     0
45.8467     0
45.8593     0
45.8718     0
45.8843     0
45.8968     0
45.9093     0
45.9218     0
45.9343     0
45.9468     0
45.9593     0
45.9718     0
45.9843     0
45.9968     0
46.0093     0
46.0219     0
46.0344     1
46.0469     0
46.0594     0
46.0719     0
46.0844     0
46.0969     0
46.1094     0
46.1219     0
46.1344     0
46.1469     0
46.1594     0
46.1719     0
46.1844     0
 46.197     0
46.2095     0
 46.222     0
46.2345     0
 46.247     0
46.2595     0
 46.272     0
46.2845     0
 46.297     0
46.3095     0
 46.322     0
46.3345     0
 46.347     0
46.3595     0
46.3721     0
46.3846     0
46.3971     0
46.4096     0
46.4221     0
46.4346     0
46.4471     0
46.4596     0
46.4721     0
46.4846     0
46.4971     0
46.5096     0
46.5221     0
46.5346     0
46.5472     0
46.5597     0
46.5722     0
46.5847     0
46.5972     0
46.6097     0
46.6222     0
46.6347     0
46.6472     0
46.6597     0
46.6722     0
46.6847     0
46.6972     0
46.7098     0
46.7223     0
46.7348     1
46.7473     0
46.7598     0
46.7723     0
46.7848     0
46.7973     0
46.8098     1
46.8223     0
46.8348     0
46.8473     0
46.8598     0
46.8723     0
46.8849     1
46.8974     0
46.9099     0
46.9224     0
46.9349     0
46.9474     0
46.9599     0
46.9724     0
46.9849     0
46.9974     0
47.0099     0
47.0224     0
47.0349     0
47.0474     0
  47.06     0
47.0725     0
 47.085     0
47.0975     0
  47.11     0
47.1225     0
 47.135     0
47.1475     0
  47.16     0
47.1725     0
 47.185     0
47.1975     0
  47.21     0
47.2225     0
47.2351     0
47.2476     0
47.2601     0
47.2726     0
47.2851     0
47.2976     0
47.3101     0
47.3226     0
47.3351     0
47.3476     0
47.3601     0
47.3726     0
47.3851     0
47.3977     0
47.4102     0
47.4227     0
47.4352     0
47.4477     0
47.4602     0
47.4727     0
47.4852     0
47.4977     0
47.5102     0
47.5227     0
47.5352     0
47.5477     0
47.5602     0
47.5728     0
47.5853     0
47.5978     0
47.6103     0
47.6228     0
47.6353     0
47.6478     0
47.6603     0
47.6728     0
47.6853     0
47.6978     0
47.7103     0
47.7228     0
47.7353     0
47.7479     0
47.7604     0
47.7729     0
47.7854     0
47.7979     0
47.8104     0
47.8229     0
47.8354     0
47.8479     0
47.8604     0
47.8729     0
47.8854     0
47.8979     0
47.9104     0
 47.923     0
47.9355     0
 47.948     0
47.9605     0
 47.973     0
47.9855     0
 47.998     0
48.0105     0
 48.023     0
48.0355     0
 48.048     0
48.0605     0
 48.073     0
48.0856     0
48.0981     0
48.1106     0
48.1231     0
48.1356     0
48.1481     0
48.1606     0
48.1731     0
48.1856     0
48.1981     0
48.2106     0
48.2231     0
48.2356     0
48.2481     0
48.2607     0
48.2732     0
48.2857     0
48.2982     0
48.3107     0
48.3232     0
48.3357     0
48.3482     0
48.3607     0
48.3732     0
48.3857     0
48.3982     0
48.4107     0
48.4232     0
48.4358     0
48.4483     0
48.4608     0
48.4733     0
48.4858     0
48.4983     0
48.5108     0
48.5233     0
48.5358     0
48.5483     0
48.5608     0
48.5733     0
48.5858     0
48.5983     0
48.6109     0
48.6234     0
48.6359     0
48.6484     0
48.6609     0
48.6734     0
48.6859     0
48.6984     0
48.7109     0
48.7234     0
48.7359     0
48.7484     0
48.7609     0
48.7735     0
 48.786     0
48.7985     0
 48.811     0
48.8235     0
 48.836     0
48.8485     0
 48.861     0
48.8735     0
 48.886     0
48.8985     0
 48.911     0
48.9235     0
 48.936     0
48.9486     0
48.9611     0
48.9736     0
48.9861     0
48.9986     0
49.0111     0
49.0236     0
49.0361     0
49.0486     0
49.0611     0
49.0736     0
49.0861     0
49.0986     0
49.1111     0
49.1237     0
49.1362     0
49.1487     0
49.1612     0
49.1737     0
49.1862     0
49.1987     0
49.2112     0
49.2237     0
49.2362     0
49.2487     0
49.2612     0
49.2737     0
49.2862     0
49.2988     0
49.3113     0
49.3238     0
49.3363     0
49.3488     0
49.3613     0
49.3738     0
49.3863     0
49.3988     0
49.4113     0
49.4238     0
49.4363     0
49.4488     0
49.4614     0
49.4739     0
49.4864     0
49.4989     0
49.5114     0
49.5239     0
49.5364     0
49.5489     0
49.5614     0
49.5739     0
49.5864     0
49.5989     0
49.6114     0
49.6239     0
49.6365     0
 49.649     0
49.6615     0
 49.674     0
49.6865     0
 49.699     0
49.7115     0
 49.724     0
49.7365     0
 49.749     0
49.7615     0
 49.774     0
49.7865     0
 49.799     0
49.8116     0
49.8241     0
49.8366     0
49.8491     0
49.8616     0
49.8741     0
49.8866     0
49.8991     0
49.9116     0
49.9241     0
49.9366     0
49.9491     0
49.9616     0
49.9741     0
49.9867     0
49.9992     0
50.0117     0
50.0242     0
