RÖNTEC GmbH Berlin, Germany
Quantax 1.2

Date: 3/3/2015 1:08:02 PM
Real time: 60648
Life time: 60002
Pulse density: 4609


Detector type: XFLASH 3001
Window type: 
Detector thickness: 0.45
Si dead layer:0

Calibration, lin.: 12.507
Calibration, abs.: -1193.107
Mn FWHM: 142.37
Fano factor: 0.105
Channels: 4096

Energy Counts
-1.1931     0
-1.1806     0
-1.1681     0
-1.1556     0
-1.1431     0
-1.1306     0
-1.1181     0
-1.1056     0
 -1.093     0
-1.0805     0
 -1.068     0
-1.0555     0
 -1.043     0
-1.0305     0
 -1.018     0
-1.0055     0
 -0.993     0
-0.9805     0
 -0.968     0
-0.9555     0
 -0.943     0
-0.9305     0
-0.9179     0
-0.9054     0
-0.8929     0
-0.8804     0
-0.8679     0
-0.8554     0
-0.8429     0
-0.8304     0
-0.8179     0
-0.8054     0
-0.7929     0
-0.7804     0
-0.7679     0
-0.7554     0
-0.7428     0
-0.7303     0
-0.7178     0
-0.7053     0
-0.6928     0
-0.6803     0
-0.6678     0
-0.6553     0
-0.6428     0
-0.6303     0
-0.6178     0
-0.6053     0
-0.5928     0
-0.5803     0
-0.5677     0
-0.5552     0
-0.5427     0
-0.5302     0
-0.5177     0
-0.5052     0
-0.4927     0
-0.4802     0
-0.4677     0
-0.4552     0
-0.4427     0
-0.4302     0
-0.4177     0
-0.4051     0
-0.3926     0
-0.3801     0
-0.3676     0
-0.3551     0
-0.3426     0
-0.3301     0
-0.3176     0
-0.3051     0
-0.2926     0
-0.2801     0
-0.2676     0
-0.2551     0
-0.2426     0
  -0.23     0
-0.2175     0
 -0.205     0
-0.1925     0
  -0.18     0
-0.1675     0
 -0.155     2
-0.1425     4
  -0.13    21
-0.1175    84
 -0.105   264
-0.0925   878
  -0.08  2589
-0.0675  6270
-0.0549 13645
-0.0424 25391
-0.0299 42662
-0.0174 62062
-0.0049 79038
 0.0076 87160
 0.0201 84851
 0.0326 71693
 0.0451 53084
 0.0576 33953
 0.0701 19424
 0.0826  9597
 0.0951  4016
 0.1076  1578
 0.1202   556
 0.1327   157
 0.1452    32
 0.1577    12
 0.1702     4
 0.1827     2
 0.1952     2
 0.2077     2
 0.2202     2
 0.2327     0
 0.2452     1
 0.2577     0
 0.2702     1
 0.2828     0
 0.2953     1
 0.3078     0
 0.3203     0
 0.3328     0
 0.3453     1
 0.3578     0
 0.3703     0
 0.3828     1
 0.3953     0
 0.4078     0
 0.4203     0
 0.4328     2
 0.4453    15
 0.4579    27
 0.4704    41
 0.4829    22
 0.4954    28
 0.5079    34
 0.5204    41
 0.5329    32
 0.5454    24
 0.5579    30
 0.5704    43
 0.5829    36
 0.5954    25
 0.6079    39
 0.6204    29
  0.633    49
 0.6455    48
  0.658    39
 0.6705    38
  0.683    37
 0.6955    33
  0.708    35
 0.7205    37
  0.733    37
 0.7455    32
  0.758    30
 0.7705    24
  0.783    27
 0.7955    26
 0.8081    23
 0.8206    23
 0.8331    30
 0.8456    25
 0.8581    15
 0.8706    21
 0.8831    34
 0.8956    20
 0.9081    26
 0.9206    22
 0.9331    21
 0.9456    21
 0.9581    24
 0.9707    16
 0.9832    27
 0.9957    15
 1.0082    15
 1.0207    14
 1.0332    19
 1.0457     9
 1.0582    19
 1.0707    16
 1.0832    16
 1.0957    23
 1.1082    10
 1.1207    10
 1.1332    22
 1.1458    21
 1.1583    24
 1.1708    19
 1.1833    15
 1.1958    18
 1.2083    10
 1.2208    16
 1.2333    19
 1.2458    15
 1.2583    18
 1.2708    18
 1.2833    15
 1.2958    18
 1.3083    16
 1.3209    15
 1.3334    14
 1.3459    23
 1.3584    10
 1.3709    19
 1.3834    17
 1.3959    14
 1.4084    16
 1.4209    21
 1.4334    14
 1.4459     9
 1.4584    14
 1.4709    14
 1.4834    17
  1.496    15
 1.5085    10
  1.521    20
 1.5335    10
  1.546    12
 1.5585    20
  1.571    20
 1.5835    15
  1.596    17
 1.6085    18
  1.621     8
 1.6335     8
  1.646    13
 1.6586    11
 1.6711    16
 1.6836    14
 1.6961    11
 1.7086    10
 1.7211    18
 1.7336    12
 1.7461    19
 1.7586    18
 1.7711    26
 1.7836    17
 1.7961    28
 1.8086    22
 1.8211    25
 1.8337    31
 1.8462    24
 1.8587    29
 1.8712    36
 1.8837    18
 1.8962    25
 1.9087    38
 1.9212    15
 1.9337    25
 1.9462    21
 1.9587    18
 1.9712    22
 1.9837    24
 1.9962    22
 2.0088    13
 2.0213    18
 2.0338    16
 2.0463    20
 2.0588    25
 2.0713    17
 2.0838    20
 2.0963    27
 2.1088    17
 2.1213    24
 2.1338    30
 2.1463    25
 2.1588    27
 2.1713    15
 2.1839    24
 2.1964    36
 2.2089    29
 2.2214    37
 2.2339    49
 2.2464    60
 2.2589    99
 2.2714   112
 2.2839   189
 2.2964   231
 2.3089   322
 2.3214   393
 2.3339   453
 2.3465   573
  2.359   560
 2.3715   596
  2.384   631
 2.3965   610
  2.409   612
 2.4215   614
  2.434   555
 2.4465   562
  2.459   531
 2.4715   464
  2.484   419
 2.4965   339
  2.509   321
 2.5216   207
 2.5341   163
 2.5466   115
 2.5591   104
 2.5716    78
 2.5841    72
 2.5966    72
 2.6091    71
 2.6216    70
 2.6341    70
 2.6466    81
 2.6591    93
 2.6716    75
 2.6841    63
 2.6967    54
 2.7092    46
 2.7217    56
 2.7342    32
 2.7467    38
 2.7592    22
 2.7717    24
 2.7842    23
 2.7967    18
 2.8092    21
 2.8217    18
 2.8342    27
 2.8467    18
 2.8592    25
 2.8718    20
 2.8843    26
 2.8968    18
 2.9093    30
 2.9218    39
 2.9343    32
 2.9468    37
 2.9593    46
 2.9718    54
 2.9843    39
 2.9968    40
 3.0093    45
 3.0218    47
 3.0344    40
 3.0469    38
 3.0594    33
 3.0719    30
 3.0844    43
 3.0969    33
 3.1094    31
 3.1219    41
 3.1344    43
 3.1469    27
 3.1594    25
 3.1719    36
 3.1844    26
 3.1969    27
 3.2095    27
  3.222    29
 3.2345    20
  3.247    30
 3.2595    21
  3.272    18
 3.2845    27
  3.297    23
 3.3095    16
  3.322    25
 3.3345    17
  3.347    28
 3.3595    24
  3.372    21
 3.3846    12
 3.3971    13
 3.4096    11
 3.4221    14
 3.4346    11
 3.4471    14
 3.4596    11
 3.4721    18
 3.4846    14
 3.4971    22
 3.5096    15
 3.5221    12
 3.5346    17
 3.5471    27
 3.5597    28
 3.5722    28
 3.5847    56
 3.5972    59
 3.6097    82
 3.6222   109
 3.6347   145
 3.6472   191
 3.6597   249
 3.6722   284
 3.6847   279
 3.6972   335
 3.7097   317
 3.7223   293
 3.7348   229
 3.7473   233
 3.7598   175
 3.7723   148
 3.7848   105
 3.7973    91
 3.8098    47
 3.8223    33
 3.8348    22
 3.8473    26
 3.8598    22
 3.8723    15
 3.8848    15
 3.8974    25
 3.9099    17
 3.9224    24
 3.9349    27
 3.9474    44
 3.9599    37
 3.9724    43
 3.9849    40
 3.9974    57
 4.0099    58
 4.0224    51
 4.0349    61
 4.0474    61
 4.0599    62
 4.0725    50
  4.085    35
 4.0975    36
   4.11    20
 4.1225    17
  4.135    21
 4.1475    14
   4.16    17
 4.1725    12
  4.185    11
 4.1975    18
   4.21    20
 4.2225    10
  4.235    11
 4.2476     9
 4.2601     9
 4.2726     9
 4.2851    14
 4.2976    19
 4.3101    12
 4.3226    15
 4.3351    16
 4.3476    12
 4.3601    15
 4.3726    12
 4.3851    22
 4.3976    13
 4.4102    19
 4.4227    13
 4.4352     9
 4.4477    22
 4.4602    13
 4.4727    21
 4.4852    21
 4.4977    21
 4.5102    14
 4.5227    16
 4.5352    16
 4.5477    14
 4.5602    13
 4.5727    19
 4.5853    11
 4.5978    13
 4.6103    13
 4.6228    15
 4.6353    13
 4.6478    11
 4.6603    10
 4.6728    10
 4.6853    19
 4.6978    18
 4.7103    15
 4.7228    18
 4.7353    21
 4.7478     9
 4.7604    14
 4.7729    19
 4.7854    14
 4.7979    11
 4.8104    11
 4.8229    14
 4.8354    16
 4.8479    16
 4.8604    21
 4.8729    21
 4.8854    12
 4.8979    15
 4.9104    11
 4.9229    13
 4.9355    12
  4.948    15
 4.9605    19
  4.973    16
 4.9855    15
  4.998    17
 5.0105     6
  5.023    15
 5.0355    14
  5.048    20
 5.0605    15
  5.073    14
 5.0855    18
 5.0981    18
 5.1106    12
 5.1231    17
 5.1356    20
 5.1481    23
 5.1606    14
 5.1731    25
 5.1856    14
 5.1981    16
 5.2106    22
 5.2231    13
 5.2356    13
 5.2481    15
 5.2606    29
 5.2732    19
 5.2857    13
 5.2982    16
 5.3107    21
 5.3232    13
 5.3357    19
 5.3482    15
 5.3607    19
 5.3732    13
 5.3857    15
 5.3982    16
 5.4107    18
 5.4232    19
 5.4357    26
 5.4483    16
 5.4608    19
 5.4733    24
 5.4858    24
 5.4983    16
 5.5108    25
 5.5233    12
 5.5358    32
 5.5483    15
 5.5608    28
 5.5733    18
 5.5858    24
 5.5983    26
 5.6108    11
 5.6234    14
 5.6359    32
 5.6484    22
 5.6609    23
 5.6734    31
 5.6859    16
 5.6984    18
 5.7109    27
 5.7234    21
 5.7359    30
 5.7484    18
 5.7609    28
 5.7734    29
  5.786    29
 5.7985    32
  5.811    27
 5.8235    19
  5.836    35
 5.8485    29
  5.861    34
 5.8735    29
  5.886    42
 5.8985    34
  5.911    35
 5.9235    38
  5.936    38
 5.9485    28
 5.9611    33
 5.9736    34
 5.9861    25
 5.9986    21
 6.0111    22
 6.0236    30
 6.0361    24
 6.0486    26
 6.0611    24
 6.0736    22
 6.0861    23
 6.0986    22
 6.1111    30
 6.1236    20
 6.1362    19
 6.1487    27
 6.1612    21
 6.1737    26
 6.1862    22
 6.1987    33
 6.2112    29
 6.2237    22
 6.2362    30
 6.2487    30
 6.2612    34
 6.2737    26
 6.2862    40
 6.2988    50
 6.3113    51
 6.3238    67
 6.3363    61
 6.3488    79
 6.3613    76
 6.3738    60
 6.3863    91
 6.3988   102
 6.4113    90
 6.4238    99
 6.4363    97
 6.4488    82
 6.4613    76
 6.4739    63
 6.4864    55
 6.4989    52
 6.5114    44
 6.5239    48
 6.5364    31
 6.5489    42
 6.5614    30
 6.5739    32
 6.5864    25
 6.5989    35
 6.6114    42
 6.6239    34
 6.6364    30
  6.649    30
 6.6615    29
  6.674    38
 6.6865    39
  6.699    34
 6.7115    34
  6.724    42
 6.7365    32
  6.749    38
 6.7615    39
  6.774    41
 6.7865    43
  6.799    31
 6.8115    34
 6.8241    30
 6.8366    34
 6.8491    43
 6.8616    41
 6.8741    41
 6.8866    45
 6.8991    33
 6.9116    52
 6.9241    32
 6.9366    45
 6.9491    43
 6.9616    36
 6.9741    48
 6.9867    50
 6.9992    44
 7.0117    62
 7.0242    40
 7.0367    39
 7.0492    37
 7.0617    42
 7.0742    42
 7.0867    46
 7.0992    40
 7.1117    42
 7.1242    47
 7.1367    51
 7.1492    47
 7.1618    45
 7.1743    50
 7.1868    41
 7.1993    65
 7.2118    44
 7.2243    52
 7.2368    40
 7.2493    45
 7.2618    58
 7.2743    56
 7.2868    60
 7.2993    58
 7.3118    68
 7.3243    67
 7.3369    66
 7.3494    86
 7.3619    72
 7.3744    67
 7.3869    79
 7.3994    91
 7.4119    76
 7.4244    66
 7.4369    75
 7.4494    74
 7.4619    73
 7.4744    78
 7.4869    58
 7.4994    52
  7.512    65
 7.5245    74
  7.537    63
 7.5495    43
  7.562    63
 7.5745    56
  7.587    50
 7.5995    63
  7.612    59
 7.6245    57
  7.637    41
 7.6495    52
  7.662    58
 7.6746    41
 7.6871    57
 7.6996    60
 7.7121    56
 7.7246    48
 7.7371    57
 7.7496    54
 7.7621    69
 7.7746    53
 7.7871    66
 7.7996    56
 7.8121    56
 7.8246    75
 7.8371    51
 7.8497    83
 7.8622    87
 7.8747    85
 7.8872    96
 7.8997    81
 7.9122    93
 7.9247    93
 7.9372   113
 7.9497   106
 7.9622   113
 7.9747   129
 7.9872   161
 7.9997   164
 8.0122   181
 8.0248   211
 8.0373   224
 8.0498   236
 8.0623   218
 8.0748   257
 8.0873   243
 8.0998   250
 8.1123   232
 8.1248   264
 8.1373   275
 8.1498   262
 8.1623   273
 8.1748   287
 8.1873   259
 8.1999   276
 8.2124   265
 8.2249   285
 8.2374   304
 8.2499   338
 8.2624   386
 8.2749   396
 8.2874   433
 8.2999   497
 8.3124   558
 8.3249   618
 8.3374   726
 8.3499   728
 8.3625   777
  8.375   851
 8.3875   882
    8.4   855
 8.4125   868
  8.425   741
 8.4375   702
   8.45   684
 8.4625   547
  8.475   500
 8.4875   409
    8.5   312
 8.5125   278
  8.525   218
 8.5376   150
 8.5501   155
 8.5626   118
 8.5751   108
 8.5876    85
 8.6001    97
 8.6126    94
 8.6251    76
 8.6376    82
 8.6501    84
 8.6626    92
 8.6751    85
 8.6876    85
 8.7001    82
 8.7127    73
 8.7252    98
 8.7377    79
 8.7502    97
 8.7627    69
 8.7752    76
 8.7877    92
 8.8002    80
 8.8127    78
 8.8252    94
 8.8377    77
 8.8502    78
 8.8627    68
 8.8752    87
 8.8878    82
 8.9003    91
 8.9128    84
 8.9253    83
 8.9378    80
 8.9503    78
 8.9628    84
 8.9753    88
 8.9878   103
 9.0003    89
 9.0128   119
 9.0253   110
 9.0378   147
 9.0504   141
 9.0629   180
 9.0754   197
 9.0879   243
 9.1004   246
 9.1129   314
 9.1254   312
 9.1379   313
 9.1504   358
 9.1629   408
 9.1754   416
 9.1879   407
 9.2004   448
 9.2129   407
 9.2255   429
  9.238   428
 9.2505   345
  9.263   357
 9.2755   338
  9.288   325
 9.3005   296
  9.313   297
 9.3255   300
  9.338   262
 9.3505   272
  9.363   290
 9.3755   285
  9.388   244
 9.4006   281
 9.4131   279
 9.4256   274
 9.4381   273
 9.4506   279
 9.4631   273
 9.4756   284
 9.4881   308
 9.5006   316
 9.5131   308
 9.5256   334
 9.5381   380
 9.5506   384
 9.5631   410
 9.5757   451
 9.5882   508
 9.6007   531
 9.6132   548
 9.6257   582
 9.6382   618
 9.6507   653
 9.6632   655
 9.6757   615
 9.6882   611
 9.7007   630
 9.7132   574
 9.7257   529
 9.7383   481
 9.7508   483
 9.7633   409
 9.7758   369
 9.7883   329
 9.8008   291
 9.8133   287
 9.8258   271
 9.8383   254
 9.8508   252
 9.8633   256
 9.8758   281
 9.8883   277
 9.9008   290
 9.9134   283
 9.9259   305
 9.9384   303
 9.9509   329
 9.9634   295
 9.9759   308
 9.9884   287
10.0009   263
10.0134   246
10.0259   236
10.0384   215
10.0509   179
10.0634   174
10.0759   130
10.0885   113
 10.101    95
10.1135   117
 10.126   104
10.1385    90
 10.151    84
10.1635    81
 10.176    85
10.1885   101
 10.201    87
10.2135   107
 10.226   102
10.2385   100
 10.251   120
10.2636   142
10.2761   150
10.2886   180
10.3011   211
10.3136   268
10.3261   324
10.3386   436
10.3511   581
10.3636   697
10.3761   921
10.3886  1148
10.4011  1325
10.4136  1747
10.4262  2170
10.4387  2415
10.4512  3089
10.4637  3313
10.4762  3866
10.4887  4318
10.5012  4788
10.5137  4993
10.5262  5283
10.5387  5426
10.5512  5352
10.5637  5402
10.5762  4967
10.5887  4539
10.6013  4241
10.6138  3525
10.6263  3190
10.6388  2777
10.6513  2224
10.6638  1706
10.6763  1267
10.6888  1096
10.7013   820
10.7138   536
10.7263   449
10.7388   323
10.7513   251
10.7638   178
10.7764   145
10.7889   140
10.8014   100
10.8139   108
10.8264    89
10.8389    78
10.8514    80
10.8639    75
10.8764    80
10.8889    63
10.9014    75
10.9139    51
10.9264    58
10.9389    58
10.9515    75
 10.964    73
10.9765    68
 10.989    69
11.0015    53
 11.014    57
11.0265    67
 11.039    53
11.0515    45
 11.064    49
11.0765    54
 11.089    55
11.1015    68
11.1141    66
11.1266    68
11.1391    78
11.1516    62
11.1641    77
11.1766    76
11.1891    71
11.2016    92
11.2141    95
11.2266   131
11.2391   130
11.2516   150
11.2641   141
11.2766   150
11.2892   148
11.3017   192
11.3142   165
11.3267   162
11.3392   165
11.3517   156
11.3642   147
11.3767   105
11.3892   128
11.4017   115
11.4142    86
11.4267    90
11.4392    91
11.4517    69
11.4643    69
11.4768    81
11.4893    71
11.5018    67
11.5143    52
11.5268    63
11.5393    60
11.5518    49
11.5643    53
11.5768    54
11.5893    46
11.6018    45
11.6143    53
11.6268    48
11.6394    43
11.6519    53
11.6644    46
11.6769    44
11.6894    41
11.7019    56
11.7144    40
11.7269    42
11.7394    48
11.7519    41
11.7644    35
11.7769    39
11.7894    43
 11.802    27
11.8145    34
 11.827    40
11.8395    41
 11.852    36
11.8645    51
 11.877    41
11.8895    52
 11.902    44
11.9145    49
 11.927    41
11.9395    47
 11.952    44
11.9645    51
11.9771    60
11.9896    64
12.0021    69
12.0146    80
12.0271    82
12.0396    90
12.0521   125
12.0646   123
12.0771   125
12.0896   150
12.1021   134
12.1146   147
12.1271   176
12.1396   148
12.1522   162
12.1647   180
12.1772   198
12.1897   195
12.2022   245
12.2147   258
12.2272   252
12.2397   262
12.2522   270
12.2647   289
12.2772   291
12.2897   263
12.3022   295
12.3147   263
12.3273   285
12.3398   289
12.3523   247
12.3648   263
12.3773   276
12.3898   313
12.4023   352
12.4148   444
12.4273   478
12.4398   621
12.4523   763
12.4648   967
12.4773  1143
12.4899  1449
12.5024  1763
12.5149  2101
12.5274  2387
12.5399  2738
12.5524  2964
12.5649  3254
12.5774  3425
12.5899  3592
12.6024  3637
12.6149  3632
12.6274  3490
12.6399  3342
12.6524  3149
 12.665  2847
12.6775  2566
  12.69  2355
12.7025  2001
 12.715  1625
12.7275  1489
  12.74  1208
12.7525   986
 12.765   888
12.7775   740
  12.79   620
12.8025   519
 12.815   457
12.8275   384
12.8401   328
12.8526   285
12.8651   254
12.8776   240
12.8901   218
12.9026   200
12.9151   199
12.9276   178
12.9401   185
12.9526   189
12.9651   174
12.9776   155
12.9901   161
13.0026   175
13.0152   185
13.0277   171
13.0402   155
13.0527   152
13.0652   147
13.0777   122
13.0902   115
13.1027    86
13.1152    72
13.1277    93
13.1402    71
13.1527    61
13.1652    61
13.1778    47
13.1903    48
13.2028    30
13.2153    35
13.2278    36
13.2403    31
13.2528    48
13.2653    27
13.2778    39
13.2903    40
13.3028    33
13.3153    36
13.3278    34
13.3403    31
13.3529    34
13.3654    35
13.3779    39
13.3904    31
13.4029    30
13.4154    33
13.4279    27
13.4404    29
13.4529    29
13.4654    25
13.4779    30
13.4904    23
13.5029    17
13.5154    19
 13.528    24
13.5405    21
 13.553    29
13.5655    14
 13.578    19
13.5905    12
 13.603    26
13.6155    23
 13.628    17
13.6405    20
 13.653    13
13.6655    16
 13.678    26
13.6905    13
13.7031    16
13.7156    31
13.7281    16
13.7406    17
13.7531    18
13.7656    17
13.7781    25
13.7906    16
13.8031    21
13.8156    23
13.8281    21
13.8406    22
13.8531    12
13.8657    19
13.8782    21
13.8907    18
13.9032    19
13.9157    19
13.9282    21
13.9407    27
13.9532    20
13.9657    20
13.9782    21
13.9907    25
14.0032    25
14.0157    17
14.0282    19
14.0408    26
14.0533    20
14.0658    25
14.0783    25
14.0908    16
14.1033    19
14.1158    19
14.1283    24
14.1408    27
14.1533    30
14.1658    38
14.1783    25
14.1908    16
14.2033    35
14.2159    42
14.2284    44
14.2409    38
14.2534    52
14.2659    33
14.2784    34
14.2909    33
14.3034    31
14.3159    42
14.3284    32
14.3409    32
14.3534    30
14.3659    27
14.3784    26
 14.391    21
14.4035    29
 14.416    25
14.4285    26
 14.441    26
14.4535    25
 14.466    24
14.4785    27
 14.491    29
14.5035    39
 14.516    40
14.5285    32
 14.541    62
14.5536    62
14.5661    68
14.5786    85
14.5911   123
14.6036   121
14.6161   158
14.6286   190
14.6411   199
14.6536   257
14.6661   302
14.6786   317
14.6911   316
14.7036   325
14.7161   366
14.7287   384
14.7412   400
14.7537   394
14.7662   439
14.7787   369
14.7912   345
14.8037   334
14.8162   299
14.8287   269
14.8412   268
14.8537   221
14.8662   185
14.8787   148
14.8912   154
14.9038   113
14.9163    86
14.9288    83
14.9413    81
14.9538    65
14.9663    69
14.9788    73
14.9913    78
15.0038    78
15.0163    95
15.0288    68
15.0413   102
15.0538    92
15.0663   109
15.0789   114
15.0914   132
15.1039   123
15.1164   125
15.1289   140
15.1414   128
15.1539   133
15.1664   135
15.1789   151
15.1914   120
15.2039   105
15.2164   109
15.2289   104
15.2415    96
 15.254    88
15.2665    82
 15.279    78
15.2915    52
 15.304    54
15.3165    43
 15.329    29
15.3415    39
 15.354    28
15.3665    35
 15.379    19
15.3915    22
 15.404    19
15.4166    25
15.4291    21
15.4416    12
15.4541    24
15.4666    22
15.4791    19
15.4916    19
15.5041    20
15.5166    21
15.5291    21
15.5416    22
15.5541    23
15.5666    23
15.5791    24
15.5917    36
15.6042    35
15.6167    44
15.6292    47
15.6417    47
15.6542    43
15.6667    41
15.6792    39
15.6917    71
15.7042    60
15.7167    50
15.7292    58
15.7417    77
15.7542    48
15.7668    65
15.7793    50
15.7918    52
15.8043    49
15.8168    40
15.8293    32
15.8418    33
15.8543    38
15.8668    35
15.8793    19
15.8918    26
15.9043    23
15.9168    23
15.9294    16
15.9419    18
15.9544    15
15.9669    14
15.9794    15
15.9919    15
16.0044    19
16.0169    13
16.0294    22
16.0419    16
16.0544    11
16.0669     8
16.0794     6
16.0919    22
16.1045    18
 16.117    16
16.1295    11
 16.142    15
16.1545    10
 16.167    17
16.1795    20
 16.192    16
16.2045    23
 16.217    12
16.2295    12
 16.242    12
16.2545    14
 16.267    20
16.2796    19
16.2921    23
16.3046     7
16.3171    12
16.3296    14
16.3421     5
16.3546    14
16.3671    15
16.3796    19
16.3921    17
16.4046    15
16.4171    15
16.4296    18
16.4421    20
16.4547    15
16.4672    12
16.4797    15
16.4922    15
16.5047    13
16.5172    16
16.5297     8
16.5422    13
16.5547    12
16.5672    16
16.5797    15
16.5922    11
16.6047    15
16.6173    12
16.6298    17
16.6423    11
16.6548    15
16.6673    12
16.6798    19
16.6923     8
16.7048    16
16.7173    23
16.7298    15
16.7423     8
16.7548     8
16.7673     8
16.7798    17
16.7924    15
16.8049    14
16.8174     7
16.8299    14
16.8424    12
16.8549     9
16.8674    14
16.8799    12
16.8924    12
16.9049    22
16.9174     9
16.9299    16
16.9424    13
16.9549    15
16.9675     9
  16.98    19
16.9925    10
 17.005     8
17.0175    14
  17.03    12
17.0425    12
 17.055     5
17.0675    11
  17.08    19
17.0925    21
 17.105     7
17.1175     9
  17.13    15
17.1426    17
17.1551    12
17.1676    19
17.1801    18
17.1926    13
17.2051     7
17.2176    13
17.2301    11
17.2426    14
17.2551    10
17.2676     4
17.2801    13
17.2926    12
17.3052    16
17.3177    15
17.3302    12
17.3427    12
17.3552    16
17.3677     4
17.3802    13
17.3927    16
17.4052    18
17.4177    16
17.4302    15
17.4427    22
17.4552    13
17.4677    10
17.4803    14
17.4928    11
17.5053    18
17.5178    16
17.5303     9
17.5428    13
17.5553    17
17.5678    18
17.5803    13
17.5928    17
17.6053    15
17.6178    12
17.6303    19
17.6428    24
17.6554    16
17.6679    17
17.6804    10
17.6929    15
17.7054    16
17.7179    15
17.7304    17
17.7429    20
17.7554    11
17.7679    18
17.7804    14
17.7929    21
17.8054    13
17.8179    21
17.8305    11
 17.843    17
17.8555    16
 17.868    16
17.8805    12
 17.893    12
17.9055     9
 17.918    14
17.9305    17
 17.943    14
17.9555     6
 17.968    11
17.9805    15
17.9931    10
18.0056    15
18.0181    13
18.0306    10
18.0431    16
18.0556     8
18.0681     8
18.0806    16
18.0931    11
18.1056     8
18.1181    13
18.1306     6
18.1431     7
18.1556    11
18.1682     9
18.1807     6
18.1932     7
18.2057    17
18.2182     6
18.2307    13
18.2432    16
18.2557    11
18.2682    11
18.2807    12
18.2932     9
18.3057    13
18.3182    16
18.3307    13
18.3433     6
18.3558    13
18.3683    16
18.3808    16
18.3933    21
18.4058    13
18.4183    10
18.4308     9
18.4433    16
18.4558     8
18.4683    13
18.4808    13
18.4933     8
18.5058    13
18.5184     9
18.5309    10
18.5434    12
18.5559     8
18.5684    13
18.5809     7
18.5934    11
18.6059     3
18.6184     9
18.6309    12
18.6434    12
18.6559    13
18.6684    10
 18.681    15
18.6935     5
 18.706     8
18.7185    11
 18.731     8
18.7435    13
 18.756    10
18.7685    17
 18.781    11
18.7935     7
 18.806    16
18.8185     8
 18.831    11
18.8435    10
18.8561     7
18.8686     5
18.8811     8
18.8936    10
18.9061     3
18.9186    10
18.9311    19
18.9436    18
18.9561     9
18.9686    12
18.9811    11
18.9936    13
19.0061    21
19.0186    10
19.0312    10
19.0437     9
19.0562    12
19.0687    17
19.0812     7
19.0937    11
19.1062    11
19.1187    15
19.1312    14
19.1437    12
19.1562     9
19.1687     9
19.1812    19
19.1937     8
19.2063    11
19.2188     8
19.2313    12
19.2438    15
19.2563     7
19.2688     6
19.2813     9
19.2938    17
19.3063     4
19.3188    14
19.3313    16
19.3438    17
19.3563     8
19.3689    14
19.3814     9
19.3939    14
19.4064    10
19.4189    13
19.4314     6
19.4439     7
19.4564     8
19.4689    10
19.4814    10
19.4939    10
19.5064     8
19.5189     5
19.5314     9
 19.544     9
19.5565    13
 19.569     6
19.5815     8
 19.594    13
19.6065    11
 19.619     9
19.6315    11
 19.644     6
19.6565    11
 19.669    10
19.6815    16
 19.694    12
19.7065    16
19.7191     5
19.7316    15
19.7441     6
19.7566    13
19.7691    10
19.7816     7
19.7941     9
19.8066     6
19.8191     7
19.8316     9
19.8441     9
19.8566    12
19.8691     8
19.8816    13
19.8942    18
19.9067    10
19.9192    16
19.9317    13
19.9442    16
19.9567    11
19.9692    10
19.9817     5
19.9942     6
20.0067     9
20.0192     8
20.0317     4
20.0442     6
20.0568    15
20.0693    15
20.0818    13
20.0943    12
20.1068     9
20.1193    12
20.1318    14
20.1443     8
20.1568     7
20.1693    10
20.1818     9
20.1943     9
20.2068    10
20.2193     7
20.2319     4
20.2444     3
20.2569    13
20.2694    10
20.2819    11
20.2944    13
20.3069     8
20.3194    16
20.3319    15
20.3444     6
20.3569    10
20.3694     5
20.3819     9
20.3944     8
 20.407    10
20.4195     7
 20.432    10
20.4445    10
 20.457     7
20.4695     7
 20.482     6
20.4945     6
 20.507     7
20.5195    10
 20.532    10
20.5445     9
 20.557     7
20.5695    11
20.5821    10
20.5946    10
20.6071     6
20.6196    15
20.6321     7
20.6446     9
20.6571     8
20.6696    13
20.6821    13
20.6946    12
20.7071    11
20.7196    11
20.7321    16
20.7447     8
20.7572    10
20.7697    10
20.7822     5
20.7947    10
20.8072    15
20.8197    17
20.8322     7
20.8447     9
20.8572    13
20.8697     8
20.8822     6
20.8947    13
20.9072     8
20.9198    10
20.9323    13
20.9448    10
20.9573    15
20.9698     8
20.9823    10
20.9948     6
21.0073    15
21.0198     7
21.0323     6
21.0448    10
21.0573    11
21.0698     6
21.0823    11
21.0949    15
21.1074     8
21.1199     9
21.1324     6
21.1449     8
21.1574     9
21.1699     8
21.1824     9
21.1949     6
21.2074     9
21.2199    11
21.2324     4
21.2449     9
21.2574     9
  21.27     7
21.2825    10
 21.295     8
21.3075    10
  21.32     5
21.3325     6
 21.345     6
21.3575     4
  21.37     5
21.3825     5
 21.395     7
21.4075    12
  21.42    12
21.4326     6
21.4451     6
21.4576     9
21.4701     4
21.4826     8
21.4951     9
21.5076    12
21.5201     9
21.5326     7
21.5451     9
21.5576     4
21.5701    12
21.5826    12
21.5951    12
21.6077     7
21.6202    14
21.6327     6
21.6452     6
21.6577     7
21.6702    12
21.6827     7
21.6952     6
21.7077     8
21.7202     7
21.7327     7
21.7452     9
21.7577    14
21.7702    13
21.7828     9
21.7953    13
21.8078     8
21.8203     6
21.8328     6
21.8453     7
21.8578    12
21.8703    10
21.8828     7
21.8953     6
21.9078    10
21.9203     4
21.9328     7
21.9453    11
21.9579    12
21.9704     5
21.9829     6
21.9954    10
22.0079     4
22.0204     7
22.0329     6
22.0454    10
22.0579     8
22.0704    11
22.0829     9
22.0954    11
22.1079     7
22.1205    10
 22.133    12
22.1455     9
 22.158     7
22.1705     5
 22.183    13
22.1955    11
 22.208    14
22.2205     5
 22.233     7
22.2455     6
 22.258     7
22.2705     9
 22.283     6
22.2956     8
22.3081     8
22.3206     6
22.3331     6
22.3456     8
22.3581     9
22.3706     8
22.3831     6
22.3956     3
22.4081     8
22.4206     5
22.4331     4
22.4456     8
22.4581     7
22.4707     7
22.4832     8
22.4957     8
22.5082     3
22.5207     8
22.5332     3
22.5457     7
22.5582     4
22.5707     5
22.5832     6
22.5957    12
22.6082     9
22.6207     5
22.6332     3
22.6458     4
22.6583     3
22.6708     4
22.6833     9
22.6958    13
22.7083    11
22.7208     7
22.7333     9
22.7458     5
22.7583     9
22.7708     9
22.7833     4
22.7958     6
22.8084    10
22.8209     7
22.8334     5
22.8459    12
22.8584     1
22.8709     5
22.8834    12
22.8959     7
22.9084    16
22.9209     4
22.9334    14
22.9459     5
22.9584     5
22.9709    12
22.9835     6
 22.996    11
23.0085     5
 23.021     3
23.0335     3
 23.046     3
23.0585     6
 23.071    11
23.0835     8
 23.096    12
23.1085     9
 23.121     7
23.1335     8
 23.146     4
23.1586    10
23.1711     8
23.1836     8
23.1961     3
23.2086     2
23.2211     5
23.2336    12
23.2461     9
23.2586     9
23.2711     9
23.2836     6
23.2961     6
23.3086     7
23.3211     2
23.3337     7
23.3462     4
23.3587    10
23.3712     7
23.3837     5
23.3962     7
23.4087     3
23.4212     7
23.4337     5
23.4462    10
23.4587     2
23.4712     5
23.4837     3
23.4963    10
23.5088     7
23.5213    10
23.5338     3
23.5463     4
23.5588     8
23.5713     6
23.5838     7
23.5963     2
23.6088     8
23.6213     7
23.6338     2
23.6463     4
23.6588    11
23.6714     8
23.6839     5
23.6964     8
23.7089    11
23.7214     5
23.7339     9
23.7464     7
23.7589     5
23.7714     7
23.7839     4
23.7964     7
23.8089     5
23.8214    11
23.8339     9
23.8465     2
 23.859     7
23.8715     7
 23.884     5
23.8965     9
 23.909     9
23.9215     1
 23.934     2
23.9465     3
 23.959     4
23.9715     6
 23.984     2
23.9965     6
 24.009     6
24.0216     5
24.0341     6
24.0466     8
24.0591     5
24.0716     6
24.0841    10
24.0966     6
24.1091     5
24.1216     7
24.1341     6
24.1466     6
24.1591     5
24.1716     5
24.1842     3
24.1967     9
24.2092     9
24.2217     6
24.2342     5
24.2467     7
24.2592     5
24.2717     6
24.2842     6
24.2967     5
24.3092     2
24.3217     7
24.3342     6
24.3467     8
24.3593     3
24.3718     6
24.3843     6
24.3968     7
24.4093     7
24.4218     3
24.4343     8
24.4468     6
24.4593    11
24.4718     5
24.4843    10
24.4968     5
24.5093     6
24.5218     5
24.5344     2
24.5469     2
24.5594    12
24.5719     6
24.5844    14
24.5969     2
24.6094     7
24.6219     5
24.6344     3
24.6469     4
24.6594     5
24.6719     5
24.6844     4
24.6969     4
24.7095     5
 24.722     7
24.7345     5
 24.747     8
24.7595     6
 24.772     9
24.7845     8
 24.797     7
24.8095     6
 24.822     5
24.8345     7
 24.847     5
24.8595     3
24.8721    10
24.8846    12
24.8971     1
24.9096     5
24.9221     8
24.9346     7
24.9471     5
24.9596    10
24.9721     8
24.9846     7
24.9971     2
25.0096     4
25.0221     3
25.0346     6
25.0472     9
25.0597     5
25.0722     5
25.0847     7
25.0972     6
25.1097     2
25.1222     5
25.1347     6
25.1472     7
25.1597     8
25.1722     2
25.1847     7
25.1972     6
25.2097     4
25.2223    13
25.2348     8
25.2473     7
25.2598    10
25.2723     4
25.2848     5
25.2973     5
25.3098     9
25.3223     2
25.3348     2
25.3473     5
25.3598     2
25.3723     6
25.3848     5
25.3974     5
25.4099     9
25.4224     7
25.4349     6
25.4474     6
25.4599     4
25.4724     6
25.4849     4
25.4974     4
25.5099     7
25.5224     1
25.5349     5
25.5474     4
  25.56     1
25.5725     0
 25.585     8
25.5975     3
  25.61     5
25.6225     7
 25.635     5
25.6475     5
  25.66     1
25.6725     5
 25.685     3
25.6975     9
  25.71     9
25.7225     3
25.7351     4
25.7476     3
25.7601     6
25.7726     4
25.7851     5
25.7976     4
25.8101     5
25.8226     6
25.8351     7
25.8476     4
25.8601     7
25.8726     4
25.8851     5
25.8976     6
25.9102     6
25.9227     6
25.9352     3
25.9477     5
25.9602     7
25.9727     2
25.9852     6
25.9977     8
26.0102     4
26.0227     6
26.0352     5
26.0477     4
26.0602     6
26.0727     3
26.0853     2
26.0978     5
26.1103     4
26.1228     5
26.1353     3
26.1478     4
26.1603     4
26.1728     9
26.1853     7
26.1978     4
26.2103     7
26.2228     3
26.2353     3
26.2479     8
26.2604     3
26.2729     4
26.2854     7
26.2979     2
26.3104     8
26.3229     8
26.3354     3
26.3479     7
26.3604     2
26.3729     4
26.3854     7
26.3979     3
26.4104     3
 26.423     6
26.4355     6
 26.448     6
26.4605     4
 26.473     5
26.4855    10
 26.498     4
26.5105     2
 26.523     7
26.5355     5
 26.548     5
26.5605     5
 26.573     3
26.5855     4
26.5981     4
26.6106     2
26.6231     5
26.6356     2
26.6481     2
26.6606     6
26.6731     1
26.6856     3
26.6981     2
26.7106     3
26.7231     4
26.7356     1
26.7481     4
26.7606     5
26.7732     4
26.7857     3
26.7982     7
26.8107     2
26.8232     4
26.8357     8
26.8482     6
26.8607     4
26.8732     1
26.8857     3
26.8982     3
26.9107     6
26.9232     2
26.9358     3
26.9483     1
26.9608     7
26.9733     4
26.9858     2
26.9983     3
27.0108     4
27.0233     3
27.0358     0
27.0483     6
27.0608     8
27.0733     2
27.0858     4
27.0983     2
27.1109     7
27.1234     4
27.1359     4
27.1484     4
27.1609     9
27.1734     3
27.1859     2
27.1984     4
27.2109     2
27.2234     7
27.2359     9
27.2484     2
27.2609     5
27.2734     4
 27.286     5
27.2985     3
 27.311     2
27.3235     2
 27.336     1
27.3485     2
 27.361     4
27.3735     2
 27.386     4
27.3985     5
 27.411     4
27.4235     4
 27.436     5
27.4485     7
27.4611     1
27.4736     4
27.4861     8
27.4986     2
27.5111     2
27.5236     7
27.5361     2
27.5486     7
27.5611     3
27.5736     4
27.5861     7
27.5986     7
27.6111     6
27.6237     5
27.6362     4
27.6487     2
27.6612     4
27.6737     4
27.6862     3
27.6987     2
27.7112     3
27.7237     5
27.7362     6
27.7487     3
27.7612     2
27.7737     0
27.7862     3
27.7988     2
27.8113     2
27.8238     3
27.8363     2
27.8488     3
27.8613     5
27.8738     4
27.8863     4
27.8988     5
27.9113     2
27.9238     3
27.9363     4
27.9488     3
27.9613     3
27.9739     2
27.9864     4
27.9989     2
28.0114     7
28.0239     1
28.0364     5
28.0489     5
28.0614     4
28.0739     2
28.0864     3
28.0989     4
28.1114     4
28.1239     3
28.1364     4
 28.149     2
28.1615     3
 28.174     4
28.1865     7
 28.199     1
28.2115     1
 28.224     3
28.2365     4
 28.249     2
28.2615     3
 28.274     2
28.2865     5
 28.299     2
28.3116     2
28.3241     2
28.3366     2
28.3491     3
28.3616     2
28.3741     2
28.3866     3
28.3991     2
28.4116     2
28.4241     4
28.4366     6
28.4491     0
28.4616     4
28.4741     7
28.4867     6
28.4992     3
28.5117     1
28.5242     1
28.5367     2
28.5492     3
28.5617     4
28.5742     5
28.5867     2
28.5992     4
28.6117     1
28.6242     3
28.6367     5
28.6492     1
28.6618     5
28.6743     1
28.6868     1
28.6993     6
28.7118     3
28.7243     6
28.7368     3
28.7493     2
28.7618     4
28.7743     4
28.7868     4
28.7993     1
28.8118     4
28.8243     4
28.8369     3
28.8494     2
28.8619     2
28.8744     1
28.8869     6
28.8994     3
28.9119     1
28.9244     3
28.9369     0
28.9494     1
28.9619     2
28.9744     3
28.9869     4
28.9995     3
 29.012     3
29.0245     6
 29.037     3
29.0495     4
 29.062     1
29.0745     2
 29.087     3
29.0995     2
 29.112     2
29.1245     3
 29.137     2
29.1495     2
 29.162     5
29.1746     5
29.1871     2
29.1996     2
29.2121     3
29.2246     3
29.2371     5
29.2496     1
29.2621     3
29.2746     1
29.2871     2
29.2996     3
29.3121     1
29.3246     2
29.3371     5
29.3497     1
29.3622     3
29.3747     3
29.3872     1
29.3997     2
29.4122     3
29.4247     3
29.4372     4
29.4497     2
29.4622     5
29.4747     0
29.4872     2
29.4997     2
29.5123     4
29.5248     2
29.5373     2
29.5498     2
29.5623     0
29.5748     1
29.5873     5
29.5998     3
29.6123     2
29.6248     5
29.6373     1
29.6498     1
29.6623     2
29.6748     2
29.6874     2
29.6999     4
29.7124     2
29.7249     2
29.7374     1
29.7499     4
29.7624     6
29.7749     1
29.7874     0
29.7999     3
29.8124     4
29.8249     2
29.8374     5
29.8499     2
29.8625     6
 29.875     7
29.8875     1
   29.9     4
29.9125     4
 29.925     1
29.9375     1
  29.95     0
29.9625     3
 29.975     6
29.9875     6
     30     4
30.0125     2
 30.025     3
30.0376     2
30.0501     4
30.0626     6
30.0751     1
30.0876     2
30.1001     4
30.1126     3
30.1251     1
30.1376     2
30.1501     4
30.1626     3
30.1751     6
30.1876     4
30.2002     4
30.2127     1
30.2252     3
30.2377     5
30.2502     3
30.2627     3
30.2752     5
30.2877     1
30.3002     1
30.3127     2
30.3252     5
30.3377     2
30.3502     0
30.3627     2
30.3753     4
30.3878     2
30.4003     7
30.4128     4
30.4253     1
30.4378     2
30.4503     1
30.4628     3
30.4753     1
30.4878     3
30.5003     1
30.5128     3
30.5253     2
30.5378     2
30.5504     2
30.5629     3
30.5754     2
30.5879     1
30.6004     1
30.6129     0
30.6254     1
30.6379     1
30.6504     0
30.6629     1
30.6754     3
30.6879     3
30.7004     1
30.7129     1
30.7255     0
 30.738     2
30.7505     2
 30.763     2
30.7755     2
 30.788     0
30.8005     1
 30.813     4
30.8255     1
 30.838     1
30.8505     2
 30.863     2
30.8755     2
30.8881     2
30.9006     6
30.9131     2
30.9256     2
30.9381     1
30.9506     1
30.9631     3
30.9756     3
30.9881     2
31.0006     4
31.0131     3
31.0256     4
31.0381     1
31.0506     2
31.0632     2
31.0757     1
31.0882     2
31.1007     2
31.1132     2
31.1257     2
31.1382     2
31.1507     2
31.1632     3
31.1757     4
31.1882     4
31.2007     2
31.2132     0
31.2257     4
31.2383     2
31.2508     2
31.2633     1
31.2758     2
31.2883     2
31.3008     4
31.3133     3
31.3258     1
31.3383     2
31.3508     2
31.3633     3
31.3758     2
31.3883     2
31.4008     3
31.4134     2
31.4259     3
31.4384     1
31.4509     4
31.4634     5
31.4759     1
31.4884     1
31.5009     4
31.5134     1
31.5259     1
31.5384     1
31.5509     2
31.5634     2
 31.576     2
31.5885     2
 31.601     6
31.6135     2
 31.626     2
31.6385     3
 31.651     3
31.6635     4
 31.676     2
31.6885     1
 31.701     1
31.7135     2
 31.726     4
31.7385     2
31.7511     3
31.7636     1
31.7761     4
31.7886     0
31.8011     1
31.8136     3
31.8261     0
31.8386     0
31.8511     5
31.8636     1
31.8761     1
31.8886     1
31.9011     0
31.9136     4
31.9262     2
31.9387     5
31.9512     0
31.9637     4
31.9762     2
31.9887     1
32.0012     2
32.0137     0
32.0262     1
32.0387     2
32.0512     2
32.0637     0
32.0762     1
32.0887     0
32.1013     3
32.1138     4
32.1263     0
32.1388     0
32.1513     1
32.1638     0
32.1763     0
32.1888     1
32.2013     1
32.2138     4
32.2263     2
32.2388     3
32.2513     1
32.2639     1
32.2764     1
32.2889     3
32.3014     3
32.3139     1
32.3264     1
32.3389     1
32.3514     2
32.3639     1
32.3764     3
32.3889     0
32.4014     1
32.4139     3
32.4264     1
 32.439     1
32.4515     2
 32.464     2
32.4765     2
 32.489     0
32.5015     0
 32.514     0
32.5265     3
 32.539     3
32.5515     2
 32.564     3
32.5765     1
 32.589     2
32.6015     2
32.6141     2
32.6266     1
32.6391     1
32.6516     2
32.6641     3
32.6766     2
32.6891     2
32.7016     2
32.7141     1
32.7266     1
32.7391     0
32.7516     2
32.7641     1
32.7766     1
32.7892     1
32.8017     1
32.8142     2
32.8267     1
32.8392     0
32.8517     2
32.8642     1
32.8767     0
32.8892     1
32.9017     0
32.9142     0
32.9267     2
32.9392     3
32.9518     1
32.9643     1
32.9768     1
32.9893     4
33.0018     2
33.0143     0
33.0268     5
33.0393     0
33.0518     1
33.0643     1
33.0768     1
33.0893     3
33.1018     0
33.1143     2
33.1269     1
33.1394     1
33.1519     2
33.1644     2
33.1769     0
33.1894     1
33.2019     1
33.2144     1
33.2269     2
33.2394     3
33.2519     1
33.2644     5
33.2769     2
33.2894     0
 33.302     2
33.3145     1
 33.327     3
33.3395     3
 33.352     3
33.3645     1
 33.377     0
33.3895     0
 33.402     1
33.4145     0
 33.427     1
33.4395     3
 33.452     1
33.4645     0
33.4771     0
33.4896     1
33.5021     1
33.5146     0
33.5271     1
33.5396     0
33.5521     1
33.5646     1
33.5771     0
33.5896     0
33.6021     0
33.6146     2
33.6271     0
33.6397     1
33.6522     1
33.6647     0
33.6772     1
33.6897     0
33.7022     1
33.7147     1
33.7272     1
33.7397     0
33.7522     1
33.7647     1
33.7772     1
33.7897     1
33.8022     0
33.8148     0
33.8273     2
33.8398     2
33.8523     0
33.8648     1
33.8773     0
33.8898     1
33.9023     1
33.9148     0
33.9273     4
33.9398     3
33.9523     1
33.9648     2
33.9773     4
33.9899     1
34.0024     2
34.0149     1
34.0274     1
34.0399     1
34.0524     2
34.0649     1
34.0774     1
34.0899     0
34.1024     0
34.1149     0
34.1274     1
34.1399     2
34.1524     3
 34.165     1
34.1775     2
  34.19     0
34.2025     0
 34.215     1
34.2275     2
  34.24     3
34.2525     1
 34.265     2
34.2775     1
  34.29     2
34.3025     0
 34.315     0
34.3276     2
34.3401     0
34.3526     1
34.3651     0
34.3776     1
34.3901     3
34.4026     1
34.4151     1
34.4276     4
34.4401     4
34.4526     0
34.4651     0
34.4776     1
34.4901     3
34.5027     1
34.5152     1
34.5277     2
34.5402     2
34.5527     2
34.5652     1
34.5777     2
34.5902     1
34.6027     1
34.6152     1
34.6277     0
34.6402     0
34.6527     2
34.6652     1
34.6778     1
34.6903     1
34.7028     0
34.7153     2
34.7278     5
34.7403     2
34.7528     1
34.7653     2
34.7778     1
34.7903     1
34.8028     0
34.8153     0
34.8278     5
34.8403     0
34.8529     1
34.8654     1
34.8779     0
34.8904     1
34.9029     1
34.9154     0
34.9279     0
34.9404     2
34.9529     3
34.9654     0
34.9779     1
34.9904     1
35.0029     1
35.0155     1
 35.028     0
35.0405     0
 35.053     0
35.0655     0
 35.078     0
35.0905     0
 35.103     2
35.1155     1
 35.128     1
35.1405     0
 35.153     1
35.1655     1
 35.178     1
35.1906     0
35.2031     2
35.2156     0
35.2281     1
35.2406     4
35.2531     2
35.2656     1
35.2781     1
35.2906     2
35.3031     1
35.3156     1
35.3281     1
35.3406     2
35.3531     1
35.3657     0
35.3782     1
35.3907     2
35.4032     0
35.4157     0
35.4282     3
35.4407     1
35.4532     3
35.4657     0
35.4782     1
35.4907     0
35.5032     1
35.5157     1
35.5282     0
35.5408     1
35.5533     0
35.5658     2
35.5783     1
35.5908     4
35.6033     0
35.6158     2
35.6283     0
35.6408     1
35.6533     1
35.6658     1
35.6783     4
35.6908     0
35.7034     0
35.7159     2
35.7284     0
35.7409     0
35.7534     2
35.7659     1
35.7784     2
35.7909     1
35.8034     1
35.8159     1
35.8284     1
35.8409     2
35.8534     1
35.8659     0
35.8785     1
 35.891     0
35.9035     1
 35.916     0
35.9285     1
 35.941     1
35.9535     0
 35.966     0
35.9785     1
 35.991     1
36.0035     1
 36.016     1
36.0285     2
 36.041     0
36.0536     0
36.0661     1
36.0786     0
36.0911     1
36.1036     0
36.1161     1
36.1286     1
36.1411     2
36.1536     0
36.1661     0
36.1786     2
36.1911     1
36.2036     0
36.2161     1
36.2287     1
36.2412     1
36.2537     2
36.2662     1
36.2787     0
36.2912     0
36.3037     1
36.3162     0
36.3287     0
36.3412     1
36.3537     1
36.3662     1
36.3787     0
36.3913     0
36.4038     2
36.4163     1
36.4288     0
36.4413     0
36.4538     1
36.4663     0
36.4788     2
36.4913     0
36.5038     0
36.5163     2
36.5288     0
36.5413     0
36.5538     1
36.5664     0
36.5789     0
36.5914     0
36.6039     0
36.6164     1
36.6289     1
36.6414     0
36.6539     0
36.6664     2
36.6789     1
36.6914     1
36.7039     0
36.7164     0
36.7289     1
36.7415     0
 36.754     1
36.7665     0
 36.779     1
36.7915     1
 36.804     0
36.8165     1
 36.829     0
36.8415     0
 36.854     0
36.8665     3
 36.879     0
36.8915     1
 36.904     0
36.9166     0
36.9291     3
36.9416     0
36.9541     1
36.9666     1
36.9791     0
36.9916     2
37.0041     2
37.0166     0
37.0291     1
37.0416     1
37.0541     0
37.0666     2
37.0792     0
37.0917     2
37.1042     0
37.1167     0
37.1292     1
37.1417     0
37.1542     1
37.1667     1
37.1792     0
37.1917     0
37.2042     0
37.2167     0
37.2292     2
37.2417     0
37.2543     1
37.2668     0
37.2793     1
37.2918     0
37.3043     1
37.3168     0
37.3293     0
37.3418     0
37.3543     0
37.3668     0
37.3793     1
37.3918     0
37.4043     0
37.4168     1
37.4294     2
37.4419     0
37.4544     1
37.4669     1
37.4794     3
37.4919     0
37.5044     0
37.5169     2
37.5294     1
37.5419     2
37.5544     0
37.5669     0
37.5794     0
37.5919     0
37.6045     0
 37.617     0
37.6295     0
 37.642     2
37.6545     1
 37.667     0
37.6795     1
 37.692     1
37.7045     0
 37.717     1
37.7295     0
 37.742     1
37.7545     0
37.7671     0
37.7796     0
37.7921     0
37.8046     0
37.8171     0
37.8296     0
37.8421     0
37.8546     0
37.8671     0
37.8796     1
37.8921     1
37.9046     0
37.9171     0
37.9296     0
37.9422     0
37.9547     1
37.9672     1
37.9797     0
37.9922     0
38.0047     0
38.0172     1
38.0297     1
38.0422     1
38.0547     0
38.0672     0
38.0797     1
38.0922     0
38.1047     0
38.1173     0
38.1298     0
38.1423     0
38.1548     0
38.1673     1
38.1798     0
38.1923     2
38.2048     1
38.2173     1
38.2298     0
38.2423     0
38.2548     0
38.2673     0
38.2798     1
38.2924     0
38.3049     1
38.3174     0
38.3299     0
38.3424     0
38.3549     0
38.3674     0
38.3799     0
38.3924     0
38.4049     4
38.4174     0
38.4299     0
38.4424     1
 38.455     0
38.4675     0
  38.48     1
38.4925     0
 38.505     0
38.5175     0
  38.53     0
38.5425     0
 38.555     0
38.5675     0
  38.58     1
38.5925     0
 38.605     0
38.6175     1
38.6301     0
38.6426     1
38.6551     2
38.6676     1
38.6801     1
38.6926     2
38.7051     2
38.7176     0
38.7301     1
38.7426     1
38.7551     0
38.7676     0
38.7801     0
38.7926     0
38.8052     1
38.8177     1
38.8302     0
38.8427     0
38.8552     2
38.8677     0
38.8802     0
38.8927     0
38.9052     0
38.9177     0
38.9302     1
38.9427     0
38.9552     0
38.9677     0
38.9803     0
38.9928     0
39.0053     1
39.0178     1
39.0303     0
39.0428     0
39.0553     0
39.0678     0
39.0803     0
39.0928     0
39.1053     0
39.1178     1
39.1303     1
39.1429     0
39.1554     0
39.1679     1
39.1804     0
39.1929     0
39.2054     1
39.2179     1
39.2304     0
39.2429     0
39.2554     1
39.2679     0
39.2804     0
39.2929     0
39.3054     0
 39.318     0
39.3305     0
 39.343     3
39.3555     1
 39.368     1
39.3805     0
 39.393     1
39.4055     0
 39.418     1
39.4305     1
 39.443     0
39.4555     0
 39.468     0
39.4805     0
39.4931     1
39.5056     1
39.5181     0
39.5306     0
39.5431     0
39.5556     1
39.5681     0
39.5806     0
39.5931     0
39.6056     1
39.6181     1
39.6306     0
39.6431     0
39.6556     0
39.6682     0
39.6807     0
39.6932     2
39.7057     2
39.7182     0
39.7307     0
39.7432     0
39.7557     0
39.7682     1
39.7807     0
39.7932     3
39.8057     0
39.8182     1
39.8308     0
39.8433     1
39.8558     0
39.8683     0
39.8808     0
39.8933     0
39.9058     0
39.9183     0
39.9308     0
39.9433     0
39.9558     0
39.9683     0
39.9808     0
39.9933     0
40.0059     0
40.0184     1
40.0309     0
40.0434     1
40.0559     0
40.0684     0
40.0809     1
40.0934     0
40.1059     0
40.1184     0
40.1309     0
40.1434     0
40.1559     0
40.1684     0
 40.181     0
40.1935     1
 40.206     0
40.2185     0
 40.231     0
40.2435     0
 40.256     0
40.2685     0
 40.281     1
40.2935     0
 40.306     0
40.3185     3
 40.331     0
40.3435     0
40.3561     0
40.3686     0
40.3811     1
40.3936     0
40.4061     1
40.4186     1
40.4311     0
40.4436     0
40.4561     0
40.4686     0
40.4811     0
40.4936     0
40.5061     0
40.5187     0
40.5312     0
40.5437     0
40.5562     0
40.5687     0
40.5812     1
40.5937     1
40.6062     0
40.6187     1
40.6312     0
40.6437     0
40.6562     0
40.6687     0
40.6812     0
40.6938     0
40.7063     0
40.7188     0
40.7313     0
40.7438     0
40.7563     0
40.7688     1
40.7813     0
40.7938     1
40.8063     0
40.8188     0
40.8313     0
40.8438     0
40.8563     1
40.8689     0
40.8814     0
40.8939     0
40.9064     0
40.9189     0
40.9314     0
40.9439     0
40.9564     1
40.9689     0
40.9814     0
40.9939     1
41.0064     0
41.0189     1
41.0314     0
 41.044     0
41.0565     0
 41.069     0
41.0815     0
 41.094     0
41.1065     1
 41.119     0
41.1315     1
 41.144     0
41.1565     0
 41.169     0
41.1815     0
 41.194     0
41.2066     0
41.2191     0
41.2316     2
41.2441     1
41.2566     1
41.2691     0
41.2816     0
41.2941     0
41.3066     0
41.3191     0
41.3316     1
41.3441     0
41.3566     0
41.3691     0
41.3817     0
41.3942     0
41.4067     0
41.4192     0
41.4317     0
41.4442     1
41.4567     0
41.4692     0
41.4817     0
41.4942     0
41.5067     1
41.5192     0
41.5317     1
41.5442     0
41.5568     0
41.5693     2
41.5818     0
41.5943     0
41.6068     0
41.6193     1
41.6318     0
41.6443     0
41.6568     0
41.6693     0
41.6818     0
41.6943     0
41.7068     0
41.7193     0
41.7319     0
41.7444     0
41.7569     0
41.7694     0
41.7819     0
41.7944     0
41.8069     0
41.8194     0
41.8319     0
41.8444     1
41.8569     0
41.8694     0
41.8819     0
41.8945     0
 41.907     0
41.9195     0
 41.932     0
41.9445     0
 41.957     0
41.9695     0
 41.982     0
41.9945     0
 42.007     0
42.0195     0
 42.032     0
42.0445     0
 42.057     0
42.0696     0
42.0821     0
42.0946     0
42.1071     0
42.1196     0
42.1321     0
42.1446     0
42.1571     0
42.1696     0
42.1821     0
42.1946     0
42.2071     0
42.2196     0
42.2321     0
42.2447     0
42.2572     1
42.2697     0
42.2822     0
42.2947     0
42.3072     0
42.3197     0
42.3322     0
42.3447     0
42.3572     0
42.3697     0
42.3822     0
42.3947     0
42.4072     0
42.4198     0
42.4323     1
42.4448     0
42.4573     0
42.4698     0
42.4823     0
42.4948     0
42.5073     0
42.5198     0
42.5323     0
42.5448     0
42.5573     0
42.5698     0
42.5824     0
42.5949     0
42.6074     0
42.6199     0
42.6324     0
42.6449     0
42.6574     0
42.6699     0
42.6824     0
42.6949     0
42.7074     1
42.7199     0
42.7324     0
42.7449     0
42.7575     0
  42.77     0
42.7825     0
 42.795     0
42.8075     0
  42.82     0
42.8325     0
 42.845     0
42.8575     0
  42.87     0
42.8825     0
 42.895     0
42.9075     0
  42.92     0
42.9326     0
42.9451     0
42.9576     0
42.9701     0
42.9826     0
42.9951     0
43.0076     0
43.0201     0
43.0326     0
43.0451     0
43.0576     0
43.0701     0
43.0826     1
43.0951     0
43.1077     0
43.1202     0
43.1327     0
43.1452     0
43.1577     0
43.1702     0
43.1827     0
43.1952     0
43.2077     0
43.2202     0
43.2327     0
43.2452     0
43.2577     0
43.2703     0
43.2828     0
43.2953     0
43.3078     0
43.3203     0
43.3328     0
43.3453     0
43.3578     0
43.3703     0
43.3828     0
43.3953     0
43.4078     0
43.4203     0
43.4328     0
43.4454     0
43.4579     0
43.4704     0
43.4829     0
43.4954     0
43.5079     0
43.5204     0
43.5329     1
43.5454     0
43.5579     0
43.5704     0
43.5829     0
43.5954     0
43.6079     0
43.6205     0
 43.633     0
43.6455     0
 43.658     0
43.6705     0
 43.683     0
43.6955     0
 43.708     0
43.7205     0
 43.733     0
43.7455     0
 43.758     0
43.7705     0
 43.783     0
43.7956     0
43.8081     0
43.8206     0
43.8331     0
43.8456     0
43.8581     0
43.8706     0
43.8831     0
43.8956     0
43.9081     0
43.9206     0
43.9331     0
43.9456     0
43.9582     0
43.9707     0
43.9832     0
43.9957     0
44.0082     0
44.0207     0
44.0332     0
44.0457     0
44.0582     0
44.0707     0
44.0832     0
44.0957     0
44.1082     0
44.1207     0
44.1333     0
44.1458     0
44.1583     0
44.1708     0
44.1833     0
44.1958     0
44.2083     0
44.2208     0
44.2333     0
44.2458     0
44.2583     0
44.2708     0
44.2833     0
44.2958     0
44.3084     0
44.3209     0
44.3334     0
44.3459     0
44.3584     2
44.3709     0
44.3834     0
44.3959     0
44.4084     0
44.4209     0
44.4334     0
44.4459     0
44.4584     0
44.4709     0
44.4835     0
 44.496     0
44.5085     0
 44.521     0
44.5335     0
 44.546     0
44.5585     0
 44.571     0
44.5835     0
 44.596     0
44.6085     0
 44.621     0
44.6335     0
44.6461     0
44.6586     0
44.6711     0
44.6836     0
44.6961     0
44.7086     0
44.7211     0
44.7336     0
44.7461     0
44.7586     0
44.7711     0
44.7836     0
44.7961     0
44.8086     0
44.8212     0
44.8337     1
44.8462     0
44.8587     0
44.8712     0
44.8837     0
44.8962     0
44.9087     0
44.9212     0
44.9337     0
44.9462     0
44.9587     0
44.9712     0
44.9837     0
44.9963     0
45.0088     0
45.0213     0
45.0338     0
45.0463     0
45.0588     0
45.0713     0
45.0838     0
45.0963     0
45.1088     0
45.1213     0
45.1338     0
45.1463     0
45.1588     0
45.1714     0
45.1839     0
45.1964     0
45.2089     0
45.2214     0
45.2339     0
45.2464     0
45.2589     0
45.2714     0
45.2839     0
45.2964     0
45.3089     0
45.3214     0
 45.334     0
45.3465     0
 45.359     0
45.3715     0
 45.384     0
45.3965     0
 45.409     0
45.4215     0
 45.434     0
45.4465     0
 45.459     0
45.4715     0
 45.484     0
45.4965     0
45.5091     0
45.5216     0
45.5341     1
45.5466     0
45.5591     0
45.5716     0
45.5841     0
45.5966     0
45.6091     0
45.6216     0
45.6341     0
45.6466     0
45.6591     0
45.6716     0
45.6842     0
45.6967     0
45.7092     0
45.7217     0
45.7342     0
45.7467     0
45.7592     0
45.7717     0
45.7842     0
45.7967     0
45.8092     0
45.8217     0
45.8342     0
45.8467     0
45.8593     0
45.8718     0
45.8843     0
45.8968     0
45.9093     0
45.9218     0
45.9343     0
45.9468     0
45.9593     0
45.9718     0
45.9843     0
45.9968     0
46.0093     0
46.0219     0
46.0344     0
46.0469     0
46.0594     0
46.0719     0
46.0844     0
46.0969     0
46.1094     0
46.1219     0
46.1344     0
46.1469     0
46.1594     0
46.1719     0
46.1844     0
 46.197     0
46.2095     0
 46.222     0
46.2345     0
 46.247     0
46.2595     0
 46.272     0
46.2845     0
 46.297     0
46.3095     0
 46.322     0
46.3345     0
 46.347     0
46.3595     0
46.3721     0
46.3846     0
46.3971     0
46.4096     0
46.4221     0
46.4346     0
46.4471     0
46.4596     0
46.4721     0
46.4846     0
46.4971     0
46.5096     0
46.5221     0
46.5346     0
46.5472     0
46.5597     0
46.5722     0
46.5847     0
46.5972     0
46.6097     0
46.6222     0
46.6347     0
46.6472     0
46.6597     0
46.6722     0
46.6847     0
46.6972     0
46.7098     0
46.7223     0
46.7348     0
46.7473     0
46.7598     0
46.7723     0
46.7848     0
46.7973     0
46.8098     0
46.8223     0
46.8348     0
46.8473     0
46.8598     0
46.8723     0
46.8849     0
46.8974     0
46.9099     0
46.9224     0
46.9349     0
46.9474     0
46.9599     0
46.9724     0
46.9849     0
46.9974     0
47.0099     0
47.0224     0
47.0349     0
47.0474     0
  47.06     0
47.0725     0
 47.085     0
47.0975     0
  47.11     0
47.1225     0
 47.135     0
47.1475     0
  47.16     0
47.1725     0
 47.185     0
47.1975     0
  47.21     0
47.2225     0
47.2351     0
47.2476     0
47.2601     0
47.2726     0
47.2851     0
47.2976     0
47.3101     0
47.3226     0
47.3351     0
47.3476     0
47.3601     0
47.3726     0
47.3851     0
47.3977     0
47.4102     0
47.4227     0
47.4352     0
47.4477     0
47.4602     0
47.4727     0
47.4852     0
47.4977     0
47.5102     0
47.5227     0
47.5352     0
47.5477     0
47.5602     0
47.5728     0
47.5853     0
47.5978     0
47.6103     0
47.6228     0
47.6353     0
47.6478     0
47.6603     0
47.6728     0
47.6853     0
47.6978     0
47.7103     0
47.7228     0
47.7353     0
47.7479     0
47.7604     0
47.7729     0
47.7854     0
47.7979     0
47.8104     0
47.8229     0
47.8354     0
47.8479     0
47.8604     0
47.8729     0
47.8854     0
47.8979     0
47.9104     0
 47.923     0
47.9355     0
 47.948     0
47.9605     0
 47.973     0
47.9855     0
 47.998     0
48.0105     0
 48.023     0
48.0355     0
 48.048     0
48.0605     0
 48.073     0
48.0856     0
48.0981     0
48.1106     0
48.1231     0
48.1356     0
48.1481     0
48.1606     0
48.1731     0
48.1856     0
48.1981     0
48.2106     0
48.2231     0
48.2356     0
48.2481     0
48.2607     0
48.2732     0
48.2857     0
48.2982     0
48.3107     0
48.3232     0
48.3357     0
48.3482     0
48.3607     0
48.3732     0
48.3857     0
48.3982     0
48.4107     0
48.4232     0
48.4358     0
48.4483     0
48.4608     0
48.4733     0
48.4858     0
48.4983     0
48.5108     0
48.5233     0
48.5358     0
48.5483     0
48.5608     0
48.5733     0
48.5858     0
48.5983     0
48.6109     0
48.6234     0
48.6359     0
48.6484     0
48.6609     0
48.6734     0
48.6859     0
48.6984     0
48.7109     0
48.7234     0
48.7359     0
48.7484     0
48.7609     0
48.7735     0
 48.786     0
48.7985     0
 48.811     0
48.8235     0
 48.836     0
48.8485     0
 48.861     0
48.8735     0
 48.886     0
48.8985     0
 48.911     0
48.9235     0
 48.936     0
48.9486     0
48.9611     0
48.9736     0
48.9861     0
48.9986     0
49.0111     0
49.0236     0
49.0361     0
49.0486     0
49.0611     0
49.0736     0
49.0861     0
49.0986     0
49.1111     0
49.1237     0
49.1362     0
49.1487     0
49.1612     0
49.1737     0
49.1862     0
49.1987     0
49.2112     0
49.2237     0
49.2362     0
49.2487     0
49.2612     0
49.2737     0
49.2862     0
49.2988     0
49.3113     0
49.3238     0
49.3363     0
49.3488     0
49.3613     0
49.3738     0
49.3863     0
49.3988     0
49.4113     0
49.4238     0
49.4363     0
49.4488     0
49.4614     0
49.4739     0
49.4864     0
49.4989     0
49.5114     0
49.5239     0
49.5364     0
49.5489     0
49.5614     0
49.5739     0
49.5864     0
49.5989     0
49.6114     0
49.6239     0
49.6365     0
 49.649     0
49.6615     0
 49.674     0
49.6865     0
 49.699     0
49.7115     0
 49.724     0
49.7365     0
 49.749     0
49.7615     0
 49.774     0
49.7865     0
 49.799     0
49.8116     0
49.8241     0
49.8366     0
49.8491     0
49.8616     0
49.8741     0
49.8866     0
49.8991     0
49.9116     0
49.9241     0
49.9366     0
49.9491     0
49.9616     0
49.9741     0
49.9867     0
49.9992     0
50.0117     0
50.0242     0
