RÖNTEC GmbH Berlin, Germany
Quantax 1.2

Date: 3/3/2015 1:04:42 PM
Real time: 61003
Life time: 60002
Pulse density: 6980


Detector type: XFLASH 3001
Window type: 
Detector thickness: 0.45
Si dead layer:0

Calibration, lin.: 12.507
Calibration, abs.: -1193.107
Mn FWHM: 142.37
Fano factor: 0.105
Channels: 4096

Energy Counts
-1.1931     0
-1.1806     0
-1.1681     0
-1.1556     0
-1.1431     0
-1.1306     0
-1.1181     0
-1.1056     0
 -1.093     0
-1.0805     0
 -1.068     0
-1.0555     0
 -1.043     0
-1.0305     0
 -1.018     0
-1.0055     0
 -0.993     0
-0.9805     0
 -0.968     0
-0.9555     0
 -0.943     0
-0.9305     0
-0.9179     0
-0.9054     0
-0.8929     0
-0.8804     0
-0.8679     0
-0.8554     0
-0.8429     0
-0.8304     0
-0.8179     0
-0.8054     0
-0.7929     0
-0.7804     0
-0.7679     0
-0.7554     0
-0.7428     0
-0.7303     0
-0.7178     0
-0.7053     0
-0.6928     0
-0.6803     0
-0.6678     0
-0.6553     0
-0.6428     0
-0.6303     0
-0.6178     0
-0.6053     0
-0.5928     0
-0.5803     0
-0.5677     0
-0.5552     0
-0.5427     0
-0.5302     0
-0.5177     0
-0.5052     0
-0.4927     0
-0.4802     0
-0.4677     0
-0.4552     0
-0.4427     0
-0.4302     0
-0.4177     0
-0.4051     0
-0.3926     0
-0.3801     0
-0.3676     0
-0.3551     0
-0.3426     0
-0.3301     0
-0.3176     0
-0.3051     0
-0.2926     0
-0.2801     0
-0.2676     0
-0.2551     0
-0.2426     0
  -0.23     0
-0.2175     0
 -0.205     0
-0.1925     0
  -0.18     0
-0.1675     0
 -0.155     2
-0.1425     2
  -0.13    17
-0.1175    58
 -0.105   277
-0.0925   851
  -0.08  2555
-0.0675  6222
-0.0549 13514
-0.0424 25785
-0.0299 42416
-0.0174 62585
-0.0049 78387
 0.0076 87016
 0.0201 84443
 0.0326 71999
 0.0451 53157
 0.0576 34154
 0.0701 19329
 0.0826  9580
 0.0951  4163
 0.1076  1553
 0.1202   549
 0.1327   154
 0.1452    46
 0.1577     7
 0.1702     4
 0.1827     3
 0.1952     3
 0.2077     1
 0.2202     2
 0.2327     0
 0.2452     1
 0.2577     2
 0.2702     0
 0.2828     0
 0.2953     0
 0.3078     0
 0.3203     0
 0.3328     0
 0.3453     1
 0.3578     0
 0.3703     0
 0.3828     0
 0.3953     0
 0.4078     0
 0.4203     0
 0.4328     5
 0.4453    23
 0.4579    51
 0.4704    49
 0.4829    53
 0.4954    46
 0.5079    36
 0.5204    44
 0.5329    49
 0.5454    33
 0.5579    44
 0.5704    45
 0.5829    48
 0.5954    51
 0.6079    25
 0.6204    58
  0.633    48
 0.6455    50
  0.658    42
 0.6705    38
  0.683    27
 0.6955    37
  0.708    43
 0.7205    29
  0.733    34
 0.7455    26
  0.758    32
 0.7705    28
  0.783    37
 0.7955    31
 0.8081    21
 0.8206    28
 0.8331    29
 0.8456    24
 0.8581    28
 0.8706    26
 0.8831    37
 0.8956    35
 0.9081    30
 0.9206    28
 0.9331    22
 0.9456    28
 0.9581    26
 0.9707    29
 0.9832    28
 0.9957    21
 1.0082    23
 1.0207    41
 1.0332    23
 1.0457    25
 1.0582    17
 1.0707    20
 1.0832    21
 1.0957    19
 1.1082    14
 1.1207    29
 1.1332    34
 1.1458    24
 1.1583    28
 1.1708    29
 1.1833    28
 1.1958    24
 1.2083    19
 1.2208    23
 1.2333    19
 1.2458    21
 1.2583    23
 1.2708    21
 1.2833    23
 1.2958    32
 1.3083    18
 1.3209    28
 1.3334    25
 1.3459    31
 1.3584    18
 1.3709    23
 1.3834    24
 1.3959    20
 1.4084    22
 1.4209    13
 1.4334    20
 1.4459    21
 1.4584    24
 1.4709    18
 1.4834    20
  1.496    20
 1.5085    21
  1.521    23
 1.5335    27
  1.546    36
 1.5585    22
  1.571    31
 1.5835    18
  1.596    27
 1.6085    25
  1.621    20
 1.6335    25
  1.646    28
 1.6586    23
 1.6711    19
 1.6836    25
 1.6961    24
 1.7086    28
 1.7211    37
 1.7336    42
 1.7461    45
 1.7586    35
 1.7711    44
 1.7836    23
 1.7961    36
 1.8086    34
 1.8211    26
 1.8337    37
 1.8462    31
 1.8587    32
 1.8712    18
 1.8837    25
 1.8962    26
 1.9087    19
 1.9212    18
 1.9337    30
 1.9462    28
 1.9587    25
 1.9712    23
 1.9837    32
 1.9962    30
 2.0088    25
 2.0213    31
 2.0338    37
 2.0463    23
 2.0588    28
 2.0713    25
 2.0838    21
 2.0963    23
 2.1088    28
 2.1213    17
 2.1338    16
 2.1463    23
 2.1588    24
 2.1713    32
 2.1839    28
 2.1964    35
 2.2089    42
 2.2214    40
 2.2339    38
 2.2464    55
 2.2589    68
 2.2714    73
 2.2839   101
 2.2964   132
 2.3089   140
 2.3214   175
 2.3339   209
 2.3465   206
  2.359   205
 2.3715   210
  2.384   234
 2.3965   208
  2.409   219
 2.4215   208
  2.434   190
 2.4465   176
  2.459   153
 2.4715   167
  2.484   147
 2.4965   145
  2.509   124
 2.5216    90
 2.5341    82
 2.5466    66
 2.5591    55
 2.5716    31
 2.5841    33
 2.5966    39
 2.6091    35
 2.6216    47
 2.6341    51
 2.6466    52
 2.6591    37
 2.6716    49
 2.6841    56
 2.6967    37
 2.7092    42
 2.7217    45
 2.7342    45
 2.7467    24
 2.7592    21
 2.7717    15
 2.7842    21
 2.7967    22
 2.8092    25
 2.8217    23
 2.8342    17
 2.8467    23
 2.8592    22
 2.8718    23
 2.8843    27
 2.8968    28
 2.9093    36
 2.9218    37
 2.9343    41
 2.9468    43
 2.9593    41
 2.9718    47
 2.9843    51
 2.9968    43
 3.0093    36
 3.0218    38
 3.0344    36
 3.0469    44
 3.0594    29
 3.0719    32
 3.0844    29
 3.0969    21
 3.1094    28
 3.1219    28
 3.1344    32
 3.1469    43
 3.1594    27
 3.1719    37
 3.1844    45
 3.1969    48
 3.2095    46
  3.222    65
 3.2345    86
  3.247   126
 3.2595   152
  3.272   191
 3.2845   213
  3.297   275
 3.3095   301
  3.322   332
 3.3345   326
  3.347   328
 3.3595   289
  3.372   239
 3.3846   175
 3.3971   142
 3.4096   115
 3.4221    79
 3.4346    47
 3.4471    44
 3.4596    27
 3.4721    28
 3.4846    33
 3.4971    26
 3.5096    32
 3.5221    33
 3.5346    61
 3.5471    60
 3.5597    71
 3.5722    88
 3.5847   123
 3.5972   190
 3.6097   217
 3.6222   292
 3.6347   352
 3.6472   437
 3.6597   552
 3.6722   606
 3.6847   712
 3.6972   771
 3.7097   737
 3.7223   677
 3.7348   642
 3.7473   540
 3.7598   419
 3.7723   317
 3.7848   209
 3.7973   182
 3.8098    98
 3.8223    72
 3.8348    47
 3.8473    40
 3.8598    25
 3.8723    16
 3.8848    34
 3.8974    19
 3.9099    20
 3.9224    39
 3.9349    42
 3.9474    69
 3.9599    61
 3.9724    73
 3.9849    84
 3.9974    96
 4.0099   123
 4.0224   130
 4.0349   110
 4.0474   109
 4.0599    90
 4.0725    93
  4.085    78
 4.0975    54
   4.11    47
 4.1225    41
  4.135    22
 4.1475    29
   4.16    24
 4.1725    16
  4.185    25
 4.1975    13
   4.21     8
 4.2225    16
  4.235    14
 4.2476    19
 4.2601    16
 4.2726     9
 4.2851    15
 4.2976    15
 4.3101    15
 4.3226    24
 4.3351    16
 4.3476    12
 4.3601    15
 4.3726    19
 4.3851    27
 4.3976    30
 4.4102    27
 4.4227    37
 4.4352    37
 4.4477    40
 4.4602    49
 4.4727    59
 4.4852    73
 4.4977    60
 4.5102    70
 4.5227    72
 4.5352    68
 4.5477    65
 4.5602    56
 4.5727    44
 4.5853    43
 4.5978    42
 4.6103    32
 4.6228    30
 4.6353    22
 4.6478    18
 4.6603    22
 4.6728    23
 4.6853    19
 4.6978    15
 4.7103    21
 4.7228    16
 4.7353    17
 4.7478    28
 4.7604    16
 4.7729    23
 4.7854    19
 4.7979    20
 4.8104    23
 4.8229    17
 4.8354    29
 4.8479    25
 4.8604    24
 4.8729    30
 4.8854    24
 4.8979    33
 4.9104    34
 4.9229    27
 4.9355    24
  4.948    24
 4.9605    30
  4.973    32
 4.9855    28
  4.998    29
 5.0105    23
  5.023    19
 5.0355    21
  5.048    24
 5.0605    21
  5.073    24
 5.0855    20
 5.0981    20
 5.1106    17
 5.1231    10
 5.1356    27
 5.1481    26
 5.1606    23
 5.1731    23
 5.1856    26
 5.1981    17
 5.2106    18
 5.2231    25
 5.2356    23
 5.2481    18
 5.2606    16
 5.2732    19
 5.2857    20
 5.2982    24
 5.3107    26
 5.3232    29
 5.3357    24
 5.3482    32
 5.3607    23
 5.3732    22
 5.3857    28
 5.3982    20
 5.4107    25
 5.4232    25
 5.4357    24
 5.4483    25
 5.4608    28
 5.4733    27
 5.4858    22
 5.4983    20
 5.5108    14
 5.5233    27
 5.5358    22
 5.5483    25
 5.5608    32
 5.5733    24
 5.5858    25
 5.5983    29
 5.6108    19
 5.6234    26
 5.6359    26
 5.6484    26
 5.6609    31
 5.6734    34
 5.6859    18
 5.6984    24
 5.7109    29
 5.7234    23
 5.7359    26
 5.7484    16
 5.7609    35
 5.7734    27
  5.786    46
 5.7985    27
  5.811    37
 5.8235    43
  5.836    30
 5.8485    31
  5.861    33
 5.8735    35
  5.886    47
 5.8985    46
  5.911    46
 5.9235    47
  5.936    48
 5.9485    32
 5.9611    39
 5.9736    29
 5.9861    33
 5.9986    43
 6.0111    31
 6.0236    35
 6.0361    28
 6.0486    25
 6.0611    25
 6.0736    25
 6.0861    20
 6.0986    31
 6.1111    27
 6.1236    29
 6.1362    24
 6.1487    37
 6.1612    32
 6.1737    33
 6.1862    32
 6.1987    33
 6.2112    46
 6.2237    48
 6.2362    46
 6.2487    66
 6.2612    91
 6.2737   102
 6.2862   133
 6.2988   202
 6.3113   272
 6.3238   335
 6.3363   403
 6.3488   492
 6.3613   590
 6.3738   649
 6.3863   703
 6.3988   675
 6.4113   680
 6.4238   700
 6.4363   581
 6.4488   582
 6.4613   492
 6.4739   406
 6.4864   324
 6.4989   245
 6.5114   202
 6.5239   159
 6.5364   118
 6.5489    96
 6.5614    65
 6.5739    54
 6.5864    54
 6.5989    40
 6.6114    37
 6.6239    42
 6.6364    36
  6.649    36
 6.6615    37
  6.674    33
 6.6865    27
  6.699    44
 6.7115    44
  6.724    42
 6.7365    41
  6.749    40
 6.7615    35
  6.774    42
 6.7865    38
  6.799    37
 6.8115    34
 6.8241    36
 6.8366    55
 6.8491    44
 6.8616    35
 6.8741    37
 6.8866    48
 6.8991    44
 6.9116    52
 6.9241    56
 6.9366    60
 6.9491    74
 6.9616    69
 6.9741    81
 6.9867    93
 6.9992   108
 7.0117   112
 7.0242   133
 7.0367   125
 7.0492   126
 7.0617   131
 7.0742   135
 7.0867   110
 7.0992   117
 7.1117   114
 7.1242    87
 7.1367    84
 7.1492    82
 7.1618    62
 7.1743    54
 7.1868    62
 7.1993    46
 7.2118    53
 7.2243    51
 7.2368    45
 7.2493    61
 7.2618    53
 7.2743    64
 7.2868    56
 7.2993    62
 7.3118    82
 7.3243    73
 7.3369    56
 7.3494    63
 7.3619    71
 7.3744    76
 7.3869    91
 7.3994    69
 7.4119    78
 7.4244    85
 7.4369    87
 7.4494    87
 7.4619    74
 7.4744    73
 7.4869    68
 7.4994    65
  7.512    70
 7.5245    72
  7.537    48
 7.5495    58
  7.562    57
 7.5745    59
  7.587    49
 7.5995    58
  7.612    52
 7.6245    52
  7.637    54
 7.6495    67
  7.662    52
 7.6746    45
 7.6871    59
 7.6996    58
 7.7121    51
 7.7246    65
 7.7371    61
 7.7496    45
 7.7621    55
 7.7746    58
 7.7871    66
 7.7996    67
 7.8121    53
 7.8246    66
 7.8371    76
 7.8497    68
 7.8622    71
 7.8747    69
 7.8872    71
 7.8997    79
 7.9122    85
 7.9247   101
 7.9372   120
 7.9497   131
 7.9622   137
 7.9747   190
 7.9872   200
 7.9997   207
 8.0122   209
 8.0248   232
 8.0373   255
 8.0498   232
 8.0623   243
 8.0748   224
 8.0873   238
 8.0998   251
 8.1123   222
 8.1248   224
 8.1373   232
 8.1498   232
 8.1623   202
 8.1748   193
 8.1873   237
 8.1999   220
 8.2124   228
 8.2249   254
 8.2374   270
 8.2499   332
 8.2624   357
 8.2749   369
 8.2874   488
 8.2999   536
 8.3124   563
 8.3249   683
 8.3374   766
 8.3499   851
 8.3625   876
  8.375   968
 8.3875   902
    8.4   987
 8.4125   992
  8.425   935
 8.4375   856
   8.45   748
 8.4625   645
  8.475   531
 8.4875   469
    8.5   372
 8.5125   258
  8.525   241
 8.5376   213
 8.5501   154
 8.5626   145
 8.5751   112
 8.5876   118
 8.6001    83
 8.6126    92
 8.6251   108
 8.6376   108
 8.6501   101
 8.6626   110
 8.6751    94
 8.6876    93
 8.7001   101
 8.7127    92
 8.7252   113
 8.7377    92
 8.7502    99
 8.7627   130
 8.7752   106
 8.7877   103
 8.8002    91
 8.8127   101
 8.8252   108
 8.8377   103
 8.8502    97
 8.8627   103
 8.8752   101
 8.8878   103
 8.9003   103
 8.9128   110
 8.9253   104
 8.9378    89
 8.9503   114
 8.9628   111
 8.9753    91
 8.9878    97
 9.0003   114
 9.0128   109
 9.0253   132
 9.0378   158
 9.0504   170
 9.0629   226
 9.0754   225
 9.0879   275
 9.1004   336
 9.1129   367
 9.1254   394
 9.1379   454
 9.1504   488
 9.1629   528
 9.1754   529
 9.1879   540
 9.2004   497
 9.2129   526
 9.2255   513
  9.238   484
 9.2505   453
  9.263   404
 9.2755   355
  9.288   340
 9.3005   299
  9.313   306
 9.3255   279
  9.338   280
 9.3505   223
  9.363   232
 9.3755   232
  9.388   244
 9.4006   232
 9.4131   236
 9.4256   208
 9.4381   234
 9.4506   248
 9.4631   296
 9.4756   264
 9.4881   266
 9.5006   313
 9.5131   315
 9.5256   332
 9.5381   309
 9.5506   416
 9.5631   473
 9.5757   498
 9.5882   494
 9.6007   565
 9.6132   607
 9.6257   658
 9.6382   700
 9.6507   738
 9.6632   785
 9.6757   727
 9.6882   716
 9.7007   735
 9.7132   648
 9.7257   592
 9.7383   562
 9.7508   497
 9.7633   465
 9.7758   405
 9.7883   375
 9.8008   405
 9.8133   348
 9.8258   369
 9.8383   410
 9.8508   365
 9.8633   383
 9.8758   441
 9.8883   430
 9.9008   491
 9.9134   518
 9.9259   503
 9.9384   555
 9.9509   597
 9.9634   532
 9.9759   585
 9.9884   543
10.0009   535
10.0134   489
10.0259   449
10.0384   391
10.0509   348
10.0634   313
10.0759   245
10.0885   204
 10.101   184
10.1135   190
 10.126   171
10.1385   130
 10.151   136
10.1635   129
 10.176   133
10.1885   117
 10.201   131
10.2135   147
 10.226   121
10.2385   142
 10.251   191
10.2636   158
10.2761   222
10.2886   290
10.3011   326
10.3136   429
10.3261   544
10.3386   657
10.3511   837
10.3636  1140
10.3761  1453
10.3886  1717
10.4011  2132
10.4136  2792
10.4262  3367
10.4387  3908
10.4512  4531
10.4637  5393
10.4762  6147
10.4887  6696
10.5012  7543
10.5137  8053
10.5262  8292
10.5387  8336
10.5512  8318
10.5637  8352
10.5762  7790
10.5887  7240
10.6013  6580
10.6138  5774
10.6263  4995
10.6388  4117
10.6513  3336
10.6638  2681
10.6763  2100
10.6888  1611
10.7013  1212
10.7138   943
10.7263   698
10.7388   459
10.7513   381
10.7638   266
10.7764   206
10.7889   157
10.8014   139
10.8139   125
10.8264    87
10.8389    91
10.8514    84
10.8639    88
10.8764    82
10.8889    89
10.9014    84
10.9139    74
10.9264    71
10.9389    85
10.9515    80
 10.964    81
10.9765    77
 10.989    69
11.0015    67
 11.014    55
11.0265    77
 11.039    68
11.0515    61
 11.064    64
11.0765    57
 11.089    65
11.1015    64
11.1141    72
11.1266    59
11.1391    74
11.1516    82
11.1641   111
11.1766   102
11.1891   127
11.2016   132
11.2141   154
11.2266   166
11.2391   149
11.2516   195
11.2641   196
11.2766   218
11.2892   225
11.3017   210
11.3142   238
11.3267   228
11.3392   219
11.3517   227
11.3642   238
11.3767   217
11.3892   196
11.4017   172
11.4142   153
11.4267   141
11.4392   139
11.4517   115
11.4643   106
11.4768    98
11.4893    76
11.5018   100
11.5143    80
11.5268    81
11.5393    83
11.5518    77
11.5643    86
11.5768    80
11.5893    80
11.6018    76
11.6143    65
11.6268    78
11.6394    99
11.6519   107
11.6644    87
11.6769    98
11.6894   103
11.7019   102
11.7144   114
11.7269   117
11.7394   117
11.7519   124
11.7644   118
11.7769   174
11.7894   160
 11.802   167
11.8145   165
 11.827   171
11.8395   176
 11.852   170
11.8645   171
 11.877   151
11.8895   152
 11.902   186
11.9145   137
 11.927   147
11.9395   120
 11.952   139
11.9645   108
11.9771   127
11.9896    90
12.0021   125
12.0146   130
12.0271   148
12.0396   160
12.0521   150
12.0646   170
12.0771   172
12.0896   231
12.1021   214
12.1146   242
12.1271   265
12.1396   225
12.1522   285
12.1647   284
12.1772   304
12.1897   343
12.2022   343
12.2147   369
12.2272   424
12.2397   426
12.2522   472
12.2647   449
12.2772   487
12.2897   450
12.3022   476
12.3147   483
12.3273   468
12.3398   429
12.3523   466
12.3648   432
12.3773   429
12.3898   508
12.4023   578
12.4148   634
12.4273   805
12.4398  1024
12.4523  1298
12.4648  1580
12.4773  2046
12.4899  2347
12.5024  2911
12.5149  3515
12.5274  4070
12.5399  4403
12.5524  5003
12.5649  5507
12.5774  6046
12.5899  5973
12.6024  6155
12.6149  6150
12.6274  5813
12.6399  5700
12.6524  5283
 12.665  4838
12.6775  4348
  12.69  3913
12.7025  3238
 12.715  2820
12.7275  2553
  12.74  2116
12.7525  1649
 12.765  1403
12.7775  1217
  12.79  1069
12.8025   815
 12.815   670
12.8275   599
12.8401   551
12.8526   505
12.8651   409
12.8776   393
12.8901   378
12.9026   300
12.9151   303
12.9276   277
12.9401   298
12.9526   249
12.9651   275
12.9776   262
12.9901   275
13.0026   283
13.0152   248
13.0277   247
13.0402   258
13.0527   216
13.0652   215
13.0777   176
13.0902   161
13.1027   148
13.1152   128
13.1277    97
13.1402   106
13.1527    94
13.1652    68
13.1778    70
13.1903    56
13.2028    44
13.2153    34
13.2278    48
13.2403    43
13.2528    49
13.2653    34
13.2778    30
13.2903    32
13.3028    46
13.3153    44
13.3278    44
13.3403    44
13.3529    32
13.3654    38
13.3779    31
13.3904    31
13.4029    29
13.4154    43
13.4279    25
13.4404    23
13.4529    47
13.4654    21
13.4779    36
13.4904    21
13.5029    26
13.5154    29
 13.528    20
13.5405    30
 13.553    18
13.5655    20
 13.578    32
13.5905    28
 13.603    21
13.6155    21
 13.628    25
13.6405    25
 13.653    22
13.6655    28
 13.678    23
13.6905    20
13.7031    37
13.7156    17
13.7281    27
13.7406    25
13.7531    42
13.7656    41
13.7781    30
13.7906    38
13.8031    28
13.8156    43
13.8281    48
13.8406    34
13.8531    30
13.8657    39
13.8782    30
13.8907    34
13.9032    29
13.9157    38
13.9282    23
13.9407    20
13.9532    34
13.9657    18
13.9782    24
13.9907    23
14.0032    27
14.0157    19
14.0282    27
14.0408    32
14.0533    34
14.0658    27
14.0783    25
14.0908    25
14.1033    37
14.1158    25
14.1283    25
14.1408    39
14.1533    35
14.1658    44
14.1783    35
14.1908    40
14.2033    52
14.2159    37
14.2284    39
14.2409    46
14.2534    51
14.2659    47
14.2784    56
14.2909    42
14.3034    46
14.3159    40
14.3284    54
14.3409    41
14.3534    41
14.3659    44
14.3784    39
 14.391    38
14.4035    28
 14.416    30
14.4285    27
 14.441    33
14.4535    44
 14.466    45
14.4785    37
 14.491    39
14.5035    52
 14.516    55
14.5285    54
 14.541    69
14.5536    76
14.5661   116
14.5786   137
14.5911   161
14.6036   190
14.6161   243
14.6286   291
14.6411   316
14.6536   376
14.6661   439
14.6786   504
14.6911   581
14.7036   596
14.7161   640
14.7287   681
14.7412   639
14.7537   646
14.7662   655
14.7787   615
14.7912   577
14.8037   527
14.8162   493
14.8287   413
14.8412   385
14.8537   317
14.8662   271
14.8787   201
14.8912   203
14.9038   184
14.9163   148
14.9288   139
14.9413   122
14.9538    92
14.9663   100
14.9788    99
14.9913   121
15.0038   106
15.0163   108
15.0288   121
15.0413   153
15.0538   138
15.0663   174
15.0789   167
15.0914   200
15.1039   174
15.1164   221
15.1289   209
15.1414   204
15.1539   235
15.1664   221
15.1789   232
15.1914   180
15.2039   191
15.2164   188
15.2289   173
15.2415   143
 15.254   126
15.2665   114
 15.279    90
15.2915    81
 15.304    63
15.3165    53
 15.329    62
15.3415    51
 15.354    34
15.3665    46
 15.379    36
15.3915    21
 15.404    23
15.4166    22
15.4291    20
15.4416    15
15.4541    18
15.4666    14
15.4791    17
15.4916    20
15.5041    25
15.5166    24
15.5291    22
15.5416    18
15.5541    19
15.5666    22
15.5791    18
15.5917    32
15.6042    28
15.6167    30
15.6292    23
15.6417    35
15.6542    36
15.6667    45
15.6792    35
15.6917    52
15.7042    42
15.7167    46
15.7292    50
15.7417    44
15.7542    52
15.7668    52
15.7793    53
15.7918    36
15.8043    56
15.8168    43
15.8293    36
15.8418    36
15.8543    38
15.8668    30
15.8793    24
15.8918    21
15.9043    22
15.9168    16
15.9294    16
15.9419     8
15.9544    19
15.9669     8
15.9794    21
15.9919    10
16.0044    14
16.0169     8
16.0294     4
16.0419    15
16.0544     9
16.0669    10
16.0794     9
16.0919    20
16.1045    14
 16.117    10
16.1295    10
 16.142     9
16.1545    12
 16.167     6
16.1795    13
 16.192     6
16.2045    16
 16.217    13
16.2295    17
 16.242    21
16.2545    15
 16.267    12
16.2796    10
16.2921    12
16.3046    18
16.3171    12
16.3296    10
16.3421    12
16.3546     8
16.3671    11
16.3796    11
16.3921    15
16.4046     8
16.4171    10
16.4296    16
16.4421    14
16.4547     6
16.4672     9
16.4797    16
16.4922    14
16.5047    10
16.5172    10
16.5297     8
16.5422    14
16.5547    12
16.5672    12
16.5797    18
16.5922     8
16.6047    12
16.6173    12
16.6298    12
16.6423    11
16.6548     6
16.6673    11
16.6798    10
16.6923    17
16.7048     6
16.7173     8
16.7298     9
16.7423     7
16.7548    13
16.7673     9
16.7798     9
16.7924     7
16.8049    10
16.8174    14
16.8299    12
16.8424     8
16.8549    12
16.8674    14
16.8799    10
16.8924    15
16.9049    15
16.9174    13
16.9299     7
16.9424     5
16.9549    15
16.9675    13
  16.98     8
16.9925    15
 17.005    13
17.0175    10
  17.03    15
17.0425     9
 17.055    13
17.0675    18
  17.08     8
17.0925     6
 17.105     8
17.1175    18
  17.13     8
17.1426    13
17.1551    11
17.1676    12
17.1801     9
17.1926    11
17.2051    12
17.2176    14
17.2301     6
17.2426    19
17.2551    14
17.2676     9
17.2801    12
17.2926     8
17.3052    12
17.3177     5
17.3302    14
17.3427     7
17.3552    16
17.3677    15
17.3802    18
17.3927     9
17.4052     8
17.4177    13
17.4302    14
17.4427    11
17.4552    17
17.4677    13
17.4803    10
17.4928    11
17.5053    11
17.5178    15
17.5303     4
17.5428     6
17.5553    13
17.5678     8
17.5803    17
17.5928     9
17.6053    20
17.6178    14
17.6303    12
17.6428    17
17.6554    13
17.6679    10
17.6804    17
17.6929    15
17.7054     9
17.7179    11
17.7304     9
17.7429    15
17.7554    14
17.7679    15
17.7804    18
17.7929    12
17.8054    15
17.8179    15
17.8305    11
 17.843    10
17.8555    12
 17.868    11
17.8805    14
 17.893     9
17.9055    14
 17.918     9
17.9305    12
 17.943    14
17.9555    10
 17.968    13
17.9805     9
17.9931    13
18.0056    11
18.0181    12
18.0306     9
18.0431    15
18.0556     9
18.0681    17
18.0806    14
18.0931     5
18.1056     9
18.1181    10
18.1306     7
18.1431    13
18.1556     7
18.1682    14
18.1807    15
18.1932     9
18.2057     9
18.2182    14
18.2307    12
18.2432    10
18.2557    11
18.2682    13
18.2807    14
18.2932     9
18.3057    14
18.3182    17
18.3307    13
18.3433     7
18.3558    15
18.3683    12
18.3808     8
18.3933    11
18.4058     8
18.4183     7
18.4308    10
18.4433     8
18.4558     5
18.4683    11
18.4808    10
18.4933    11
18.5058    10
18.5184    10
18.5309    13
18.5434    14
18.5559     7
18.5684     6
18.5809     6
18.5934    13
18.6059    10
18.6184     2
18.6309     9
18.6434    11
18.6559    11
18.6684    19
 18.681    16
18.6935    13
 18.706    12
18.7185    11
 18.731    12
18.7435     7
 18.756     8
18.7685    11
 18.781    15
18.7935    17
 18.806     9
18.8185    10
 18.831    12
18.8435    10
18.8561     8
18.8686     9
18.8811    11
18.8936     8
18.9061    12
18.9186    15
18.9311     6
18.9436    10
18.9561     9
18.9686    14
18.9811     8
18.9936    11
19.0061     4
19.0186    12
19.0312    15
19.0437    12
19.0562    12
19.0687     5
19.0812     7
19.0937    10
19.1062     7
19.1187     9
19.1312     7
19.1437     4
19.1562     4
19.1687     8
19.1812    18
19.1937     5
19.2063    11
19.2188    14
19.2313     7
19.2438     6
19.2563    18
19.2688     7
19.2813     4
19.2938    11
19.3063     7
19.3188     4
19.3313    15
19.3438     9
19.3563    16
19.3689    10
19.3814    12
19.3939     6
19.4064     9
19.4189     3
19.4314     8
19.4439     8
19.4564     5
19.4689     9
19.4814    16
19.4939     8
19.5064     7
19.5189     9
19.5314     7
 19.544     8
19.5565    11
 19.569    11
19.5815    11
 19.594     7
19.6065    15
 19.619     7
19.6315     8
 19.644    15
19.6565     9
 19.669     5
19.6815    11
 19.694     3
19.7065    13
19.7191    11
19.7316    10
19.7441     9
19.7566     7
19.7691     4
19.7816    10
19.7941     7
19.8066     8
19.8191     8
19.8316    15
19.8441    10
19.8566    11
19.8691     8
19.8816    14
19.8942     8
19.9067    12
19.9192    16
19.9317     6
19.9442     4
19.9567     7
19.9692     8
19.9817    13
19.9942     8
20.0067     5
20.0192    10
20.0317     5
20.0442    16
20.0568    12
20.0693     7
20.0818    11
20.0943     4
20.1068    11
20.1193     7
20.1318    11
20.1443     7
20.1568    12
20.1693     9
20.1818     7
20.1943    11
20.2068     8
20.2193    12
20.2319     7
20.2444     6
20.2569     6
20.2694     7
20.2819     9
20.2944    11
20.3069    15
20.3194    15
20.3319    10
20.3444     6
20.3569     9
20.3694     9
20.3819     8
20.3944     9
 20.407     5
20.4195     5
 20.432    10
20.4445    14
 20.457    12
20.4695    13
 20.482     8
20.4945    12
 20.507     3
20.5195    14
 20.532     9
20.5445    12
 20.557     7
20.5695     9
20.5821    10
20.5946     7
20.6071    13
20.6196     9
20.6321     7
20.6446     7
20.6571     8
20.6696    11
20.6821     6
20.6946     8
20.7071     9
20.7196     5
20.7321     8
20.7447     6
20.7572    10
20.7697    11
20.7822     8
20.7947     6
20.8072     6
20.8197    10
20.8322     8
20.8447     8
20.8572    10
20.8697    10
20.8822    12
20.8947     9
20.9072    16
20.9198     7
20.9323    10
20.9448     8
20.9573     5
20.9698     9
20.9823     8
20.9948    16
21.0073    14
21.0198    10
21.0323    10
21.0448    13
21.0573     8
21.0698     7
21.0823     7
21.0949     7
21.1074    10
21.1199    10
21.1324    11
21.1449     9
21.1574    10
21.1699    12
21.1824    11
21.1949     8
21.2074     8
21.2199     5
21.2324     6
21.2449     6
21.2574     3
  21.27     6
21.2825     9
 21.295     6
21.3075     6
  21.32     6
21.3325     8
 21.345     8
21.3575    10
  21.37    10
21.3825     8
 21.395     8
21.4075     5
  21.42     3
21.4326     8
21.4451    11
21.4576     7
21.4701    10
21.4826    10
21.4951     8
21.5076     5
21.5201     4
21.5326     8
21.5451     3
21.5576    11
21.5701     6
21.5826     8
21.5951     8
21.6077    10
21.6202     8
21.6327    13
21.6452    13
21.6577     4
21.6702    10
21.6827     7
21.6952     6
21.7077    13
21.7202    11
21.7327    15
21.7452     5
21.7577     4
21.7702    12
21.7828     5
21.7953     6
21.8078     3
21.8203     8
21.8328    12
21.8453     8
21.8578     8
21.8703     9
21.8828     5
21.8953     8
21.9078     9
21.9203     7
21.9328    12
21.9453     6
21.9579     7
21.9704     6
21.9829    11
21.9954     9
22.0079     8
22.0204    10
22.0329     8
22.0454     7
22.0579    12
22.0704     8
22.0829    17
22.0954    10
22.1079    13
22.1205     9
 22.133     1
22.1455     7
 22.158    11
22.1705     7
 22.183     6
22.1955     9
 22.208     6
22.2205     6
 22.233     5
22.2455    11
 22.258     6
22.2705     8
 22.283     6
22.2956    11
22.3081     8
22.3206     4
22.3331     3
22.3456    10
22.3581     7
22.3706     7
22.3831     5
22.3956     8
22.4081    11
22.4206     9
22.4331     6
22.4456     3
22.4581     9
22.4707     7
22.4832     8
22.4957     9
22.5082     9
22.5207     7
22.5332    10
22.5457     3
22.5582     3
22.5707     5
22.5832     4
22.5957     9
22.6082     8
22.6207     4
22.6332     6
22.6458    11
22.6583     9
22.6708    10
22.6833     4
22.6958    10
22.7083     7
22.7208     5
22.7333     3
22.7458    10
22.7583     9
22.7708     8
22.7833     3
22.7958     8
22.8084     7
22.8209     7
22.8334    10
22.8459     7
22.8584     9
22.8709     7
22.8834    15
22.8959     6
22.9084    10
22.9209     9
22.9334    10
22.9459     5
22.9584     6
22.9709     4
22.9835     4
 22.996     6
23.0085     6
 23.021     6
23.0335     9
 23.046    13
23.0585     5
 23.071    10
23.0835    16
 23.096     7
23.1085     9
 23.121    11
23.1335     7
 23.146     6
23.1586     6
23.1711     8
23.1836    10
23.1961    10
23.2086     8
23.2211     7
23.2336    12
23.2461     5
23.2586     8
23.2711     5
23.2836     8
23.2961     7
23.3086     7
23.3211     3
23.3337     7
23.3462     5
23.3587     8
23.3712     0
23.3837     7
23.3962     8
23.4087     4
23.4212     6
23.4337     7
23.4462     5
23.4587     5
23.4712     8
23.4837     3
23.4963     8
23.5088     4
23.5213     7
23.5338     8
23.5463     8
23.5588     9
23.5713     6
23.5838     7
23.5963     2
23.6088     4
23.6213     7
23.6338     5
23.6463     4
23.6588     3
23.6714     8
23.6839     5
23.6964     6
23.7089     8
23.7214     6
23.7339     6
23.7464     5
23.7589     9
23.7714     5
23.7839     6
23.7964     6
23.8089     2
23.8214     6
23.8339     4
23.8465     6
 23.859     2
23.8715     8
 23.884    10
23.8965     3
 23.909     6
23.9215     9
 23.934     6
23.9465     4
 23.959     8
23.9715     1
 23.984     4
23.9965     4
 24.009     6
24.0216     5
24.0341     4
24.0466     6
24.0591     2
24.0716    11
24.0841     8
24.0966     3
24.1091     6
24.1216     4
24.1341     4
24.1466     8
24.1591     2
24.1716     5
24.1842     5
24.1967     6
24.2092     2
24.2217     6
24.2342     7
24.2467     8
24.2592     6
24.2717     3
24.2842     1
24.2967     3
24.3092     3
24.3217     3
24.3342     4
24.3467     2
24.3593    10
24.3718     4
24.3843     6
24.3968     3
24.4093    11
24.4218     3
24.4343     7
24.4468     9
24.4593     3
24.4718     8
24.4843     2
24.4968     6
24.5093     4
24.5218     1
24.5344     7
24.5469     3
24.5594     4
24.5719     5
24.5844     8
24.5969     4
24.6094     1
24.6219     3
24.6344     5
24.6469    10
24.6594     2
24.6719     2
24.6844     4
24.6969     5
24.7095     4
 24.722     4
24.7345     2
 24.747     2
24.7595     9
 24.772     5
24.7845     6
 24.797     6
24.8095     8
 24.822     4
24.8345    10
 24.847     6
24.8595     4
24.8721     9
24.8846     3
24.8971     5
24.9096     7
24.9221    11
24.9346     7
24.9471     3
24.9596     4
24.9721     9
24.9846     6
24.9971     8
25.0096     7
25.0221     5
25.0346     9
25.0472     3
25.0597    13
25.0722     8
25.0847     6
25.0972     4
25.1097     6
25.1222     8
25.1347     1
25.1472     8
25.1597     7
25.1722     8
25.1847     4
25.1972     7
25.2097     3
25.2223     3
25.2348     2
25.2473     6
25.2598     4
25.2723     4
25.2848     5
25.2973     3
25.3098     6
25.3223     8
25.3348     2
25.3473     6
25.3598     6
25.3723     4
25.3848     4
25.3974     4
25.4099     3
25.4224     2
25.4349     8
25.4474     3
25.4599     2
25.4724     4
25.4849     6
25.4974     5
25.5099     4
25.5224     3
25.5349     5
25.5474     3
  25.56     2
25.5725     3
 25.585     4
25.5975    10
  25.61     3
25.6225     2
 25.635     4
25.6475     2
  25.66     2
25.6725     8
 25.685     7
25.6975     6
  25.71     3
25.7225     5
25.7351     9
25.7476     4
25.7601     5
25.7726     2
25.7851     2
25.7976     3
25.8101     8
25.8226     5
25.8351     9
25.8476     3
25.8601     3
25.8726     8
25.8851     3
25.8976     4
25.9102     7
25.9227     8
25.9352     4
25.9477     5
25.9602     5
25.9727     0
25.9852     4
25.9977     6
26.0102     5
26.0227     1
26.0352     2
26.0477     5
26.0602     9
26.0727     2
26.0853     7
26.0978     3
26.1103     1
26.1228     3
26.1353     7
26.1478     6
26.1603     5
26.1728     3
26.1853     2
26.1978     4
26.2103     2
26.2228     5
26.2353     3
26.2479     3
26.2604     1
26.2729     2
26.2854     3
26.2979     8
26.3104     8
26.3229     7
26.3354     1
26.3479     6
26.3604     4
26.3729     2
26.3854     0
26.3979     8
26.4104     7
 26.423     8
26.4355     3
 26.448     6
26.4605     3
 26.473     4
26.4855     4
 26.498     1
26.5105     2
 26.523     3
26.5355     1
 26.548     1
26.5605     1
 26.573     2
26.5855     7
26.5981     2
26.6106     6
26.6231     0
26.6356     3
26.6481     6
26.6606     5
26.6731     2
26.6856     5
26.6981     5
26.7106     6
26.7231     3
26.7356     2
26.7481     5
26.7606     5
26.7732     3
26.7857     1
26.7982     2
26.8107     1
26.8232     2
26.8357     6
26.8482     2
26.8607     2
26.8732     4
26.8857     0
26.8982     2
26.9107     2
26.9232     7
26.9358     4
26.9483     3
26.9608     6
26.9733     8
26.9858     5
26.9983     4
27.0108     2
27.0233     6
27.0358     3
27.0483     3
27.0608     4
27.0733     1
27.0858     4
27.0983     2
27.1109     3
27.1234     2
27.1359     2
27.1484     1
27.1609     5
27.1734     7
27.1859     2
27.1984     6
27.2109     4
27.2234     4
27.2359     3
27.2484     2
27.2609     4
27.2734     3
 27.286     2
27.2985     3
 27.311     2
27.3235     0
 27.336     2
27.3485     4
 27.361     7
27.3735     1
 27.386     4
27.3985     7
 27.411     2
27.4235     1
 27.436     3
27.4485     3
27.4611     7
27.4736     2
27.4861     4
27.4986     4
27.5111     1
27.5236     4
27.5361     0
27.5486     4
27.5611     4
27.5736     2
27.5861     6
27.5986     5
27.6111     3
27.6237     2
27.6362     3
27.6487     3
27.6612     2
27.6737     4
27.6862     4
27.6987     4
27.7112     5
27.7237     4
27.7362     4
27.7487     2
27.7612     3
27.7737     1
27.7862     7
27.7988     2
27.8113     1
27.8238     1
27.8363     5
27.8488     1
27.8613     4
27.8738     3
27.8863     0
27.8988     2
27.9113     3
27.9238     3
27.9363     3
27.9488     2
27.9613     1
27.9739     5
27.9864     4
27.9989     5
28.0114     7
28.0239     5
28.0364     3
28.0489     3
28.0614     6
28.0739     3
28.0864     3
28.0989     0
28.1114     0
28.1239     2
28.1364     3
 28.149     0
28.1615     1
 28.174     1
28.1865     5
 28.199     1
28.2115     3
 28.224     3
28.2365     1
 28.249     5
28.2615     3
 28.274     5
28.2865     2
 28.299     2
28.3116     2
28.3241     4
28.3366     3
28.3491     3
28.3616     2
28.3741     7
28.3866     4
28.3991     3
28.4116     2
28.4241     2
28.4366     5
28.4491     2
28.4616     2
28.4741     5
28.4867     3
28.4992     2
28.5117     2
28.5242     1
28.5367     3
28.5492     3
28.5617     2
28.5742     2
28.5867     5
28.5992     5
28.6117     6
28.6242     3
28.6367     3
28.6492     2
28.6618     3
28.6743     3
28.6868     2
28.6993     2
28.7118     2
28.7243     2
28.7368     4
28.7493     2
28.7618     4
28.7743     1
28.7868     5
28.7993     1
28.8118     5
28.8243     5
28.8369     4
28.8494     6
28.8619     1
28.8744     1
28.8869     4
28.8994     2
28.9119     5
28.9244     2
28.9369     2
28.9494     4
28.9619     2
28.9744     2
28.9869     2
28.9995     1
 29.012     1
29.0245     2
 29.037     1
29.0495     2
 29.062     3
29.0745     5
 29.087     3
29.0995     1
 29.112     5
29.1245     2
 29.137     3
29.1495     4
 29.162     4
29.1746     2
29.1871     1
29.1996     3
29.2121     0
29.2246     2
29.2371     3
29.2496     2
29.2621     1
29.2746     2
29.2871     0
29.2996     0
29.3121     1
29.3246     3
29.3371     2
29.3497     3
29.3622     3
29.3747     3
29.3872     3
29.3997     0
29.4122     2
29.4247     1
29.4372     0
29.4497     2
29.4622     2
29.4747     3
29.4872     2
29.4997     3
29.5123     4
29.5248     4
29.5373     2
29.5498     3
29.5623     5
29.5748     3
29.5873     1
29.5998     1
29.6123     1
29.6248     1
29.6373     3
29.6498     3
29.6623     0
29.6748     4
29.6874     0
29.6999     0
29.7124     2
29.7249     2
29.7374     0
29.7499     1
29.7624     2
29.7749     3
29.7874     1
29.7999     3
29.8124     3
29.8249     1
29.8374     5
29.8499     0
29.8625     1
 29.875     3
29.8875     4
   29.9     2
29.9125     1
 29.925     0
29.9375     3
  29.95     4
29.9625     0
 29.975     4
29.9875     0
     30     2
30.0125     4
 30.025     1
30.0376     2
30.0501     0
30.0626     1
30.0751     1
30.0876     1
30.1001     2
30.1126     1
30.1251     5
30.1376     2
30.1501     2
30.1626     1
30.1751     1
30.1876     0
30.2002     2
30.2127     1
30.2252     1
30.2377     3
30.2502     1
30.2627     1
30.2752     2
30.2877     1
30.3002     4
30.3127     2
30.3252     0
30.3377     1
30.3502     0
30.3627     4
30.3753     6
30.3878     4
30.4003     3
30.4128     3
30.4253     2
30.4378     3
30.4503     3
30.4628     1
30.4753     2
30.4878     3
30.5003     0
30.5128     2
30.5253     3
30.5378     1
30.5504     0
30.5629     0
30.5754     1
30.5879     2
30.6004     1
30.6129     3
30.6254     1
30.6379     2
30.6504     2
30.6629     0
30.6754     2
30.6879     4
30.7004     3
30.7129     0
30.7255     5
 30.738     2
30.7505     1
 30.763     4
30.7755     4
 30.788     4
30.8005     0
 30.813     1
30.8255     1
 30.838     3
30.8505     0
 30.863     1
30.8755     2
30.8881     1
30.9006     3
30.9131     2
30.9256     0
30.9381     1
30.9506     4
30.9631     4
30.9756     2
30.9881     1
31.0006     0
31.0131     0
31.0256     2
31.0381     0
31.0506     3
31.0632     2
31.0757     3
31.0882     1
31.1007     4
31.1132     2
31.1257     0
31.1382     3
31.1507     3
31.1632     0
31.1757     5
31.1882     4
31.2007     2
31.2132     2
31.2257     0
31.2383     0
31.2508     0
31.2633     2
31.2758     3
31.2883     2
31.3008     4
31.3133     2
31.3258     4
31.3383     2
31.3508     1
31.3633     1
31.3758     1
31.3883     3
31.4008     2
31.4134     2
31.4259     1
31.4384     0
31.4509     0
31.4634     1
31.4759     1
31.4884     2
31.5009     3
31.5134     0
31.5259     1
31.5384     3
31.5509     2
31.5634     0
 31.576     4
31.5885     3
 31.601     0
31.6135     1
 31.626     1
31.6385     1
 31.651     1
31.6635     2
 31.676     2
31.6885     2
 31.701     1
31.7135     5
 31.726     2
31.7385     0
31.7511     6
31.7636     1
31.7761     2
31.7886     1
31.8011     2
31.8136     0
31.8261     2
31.8386     0
31.8511     3
31.8636     2
31.8761     1
31.8886     0
31.9011     2
31.9136     1
31.9262     3
31.9387     1
31.9512     2
31.9637     0
31.9762     3
31.9887     1
32.0012     3
32.0137     2
32.0262     2
32.0387     1
32.0512     1
32.0637     2
32.0762     1
32.0887     1
32.1013     2
32.1138     1
32.1263     1
32.1388     1
32.1513     0
32.1638     2
32.1763     2
32.1888     0
32.2013     1
32.2138     0
32.2263     0
32.2388     1
32.2513     0
32.2639     2
32.2764     3
32.2889     0
32.3014     3
32.3139     0
32.3264     0
32.3389     1
32.3514     2
32.3639     5
32.3764     2
32.3889     1
32.4014     3
32.4139     2
32.4264     2
 32.439     1
32.4515     2
 32.464     2
32.4765     0
 32.489     1
32.5015     0
 32.514     1
32.5265     1
 32.539     2
32.5515     3
 32.564     1
32.5765     0
 32.589     2
32.6015     1
32.6141     3
32.6266     3
32.6391     0
32.6516     1
32.6641     2
32.6766     5
32.6891     0
32.7016     1
32.7141     1
32.7266     1
32.7391     0
32.7516     3
32.7641     2
32.7766     0
32.7892     2
32.8017     1
32.8142     0
32.8267     2
32.8392     4
32.8517     2
32.8642     0
32.8767     1
32.8892     0
32.9017     0
32.9142     1
32.9267     1
32.9392     2
32.9518     1
32.9643     0
32.9768     3
32.9893     0
33.0018     0
33.0143     0
33.0268     0
33.0393     1
33.0518     0
33.0643     1
33.0768     0
33.0893     1
33.1018     0
33.1143     1
33.1269     4
33.1394     1
33.1519     1
33.1644     0
33.1769     0
33.1894     1
33.2019     0
33.2144     2
33.2269     2
33.2394     2
33.2519     1
33.2644     2
33.2769     2
33.2894     0
 33.302     0
33.3145     3
 33.327     1
33.3395     0
 33.352     0
33.3645     2
 33.377     0
33.3895     0
 33.402     0
33.4145     1
 33.427     1
33.4395     0
 33.452     0
33.4645     2
33.4771     0
33.4896     0
33.5021     0
33.5146     2
33.5271     2
33.5396     1
33.5521     0
33.5646     0
33.5771     0
33.5896     4
33.6021     4
33.6146     0
33.6271     3
33.6397     2
33.6522     1
33.6647     2
33.6772     2
33.6897     0
33.7022     1
33.7147     1
33.7272     1
33.7397     1
33.7522     0
33.7647     1
33.7772     0
33.7897     4
33.8022     3
33.8148     0
33.8273     1
33.8398     1
33.8523     0
33.8648     1
33.8773     1
33.8898     0
33.9023     0
33.9148     1
33.9273     1
33.9398     1
33.9523     1
33.9648     1
33.9773     2
33.9899     1
34.0024     1
34.0149     4
34.0274     0
34.0399     0
34.0524     0
34.0649     0
34.0774     1
34.0899     1
34.1024     0
34.1149     1
34.1274     2
34.1399     0
34.1524     4
 34.165     0
34.1775     0
  34.19     0
34.2025     0
 34.215     0
34.2275     1
  34.24     2
34.2525     3
 34.265     2
34.2775     1
  34.29     0
34.3025     2
 34.315     2
34.3276     1
34.3401     1
34.3526     0
34.3651     2
34.3776     0
34.3901     2
34.4026     0
34.4151     0
34.4276     0
34.4401     1
34.4526     0
34.4651     4
34.4776     1
34.4901     1
34.5027     1
34.5152     0
34.5277     2
34.5402     2
34.5527     2
34.5652     0
34.5777     1
34.5902     0
34.6027     0
34.6152     0
34.6277     2
34.6402     0
34.6527     0
34.6652     1
34.6778     2
34.6903     1
34.7028     0
34.7153     0
34.7278     2
34.7403     1
34.7528     2
34.7653     1
34.7778     1
34.7903     2
34.8028     2
34.8153     2
34.8278     0
34.8403     1
34.8529     0
34.8654     1
34.8779     0
34.8904     1
34.9029     1
34.9154     0
34.9279     0
34.9404     0
34.9529     0
34.9654     0
34.9779     1
34.9904     3
35.0029     1
35.0155     0
 35.028     1
35.0405     0
 35.053     3
35.0655     2
 35.078     0
35.0905     4
 35.103     0
35.1155     2
 35.128     2
35.1405     0
 35.153     0
35.1655     0
 35.178     1
35.1906     1
35.2031     0
35.2156     1
35.2281     0
35.2406     0
35.2531     1
35.2656     0
35.2781     2
35.2906     0
35.3031     2
35.3156     0
35.3281     1
35.3406     1
35.3531     1
35.3657     0
35.3782     0
35.3907     1
35.4032     1
35.4157     2
35.4282     2
35.4407     1
35.4532     0
35.4657     0
35.4782     0
35.4907     0
35.5032     1
35.5157     1
35.5282     1
35.5408     0
35.5533     1
35.5658     2
35.5783     3
35.5908     0
35.6033     0
35.6158     0
35.6283     1
35.6408     2
35.6533     1
35.6658     0
35.6783     1
35.6908     1
35.7034     1
35.7159     0
35.7284     0
35.7409     1
35.7534     0
35.7659     0
35.7784     0
35.7909     1
35.8034     1
35.8159     0
35.8284     0
35.8409     1
35.8534     1
35.8659     1
35.8785     0
 35.891     0
35.9035     0
 35.916     1
35.9285     2
 35.941     0
35.9535     2
 35.966     0
35.9785     0
 35.991     0
36.0035     2
 36.016     1
36.0285     1
 36.041     1
36.0536     0
36.0661     0
36.0786     0
36.0911     1
36.1036     0
36.1161     1
36.1286     1
36.1411     0
36.1536     0
36.1661     0
36.1786     0
36.1911     1
36.2036     0
36.2161     0
36.2287     2
36.2412     0
36.2537     2
36.2662     1
36.2787     1
36.2912     0
36.3037     0
36.3162     2
36.3287     1
36.3412     0
36.3537     1
36.3662     0
36.3787     0
36.3913     0
36.4038     2
36.4163     1
36.4288     0
36.4413     0
36.4538     0
36.4663     0
36.4788     0
36.4913     0
36.5038     0
36.5163     2
36.5288     0
36.5413     1
36.5538     1
36.5664     0
36.5789     3
36.5914     0
36.6039     0
36.6164     3
36.6289     0
36.6414     0
36.6539     1
36.6664     1
36.6789     2
36.6914     1
36.7039     2
36.7164     0
36.7289     2
36.7415     0
 36.754     2
36.7665     2
 36.779     0
36.7915     1
 36.804     4
36.8165     0
 36.829     0
36.8415     0
 36.854     0
36.8665     1
 36.879     1
36.8915     0
 36.904     1
36.9166     1
36.9291     0
36.9416     0
36.9541     1
36.9666     1
36.9791     1
36.9916     1
37.0041     0
37.0166     0
37.0291     1
37.0416     0
37.0541     0
37.0666     0
37.0792     2
37.0917     2
37.1042     0
37.1167     3
37.1292     1
37.1417     2
37.1542     2
37.1667     0
37.1792     0
37.1917     2
37.2042     1
37.2167     0
37.2292     0
37.2417     1
37.2543     0
37.2668     1
37.2793     0
37.2918     0
37.3043     0
37.3168     0
37.3293     1
37.3418     0
37.3543     2
37.3668     0
37.3793     0
37.3918     0
37.4043     0
37.4168     1
37.4294     1
37.4419     1
37.4544     1
37.4669     1
37.4794     1
37.4919     0
37.5044     0
37.5169     2
37.5294     1
37.5419     0
37.5544     0
37.5669     0
37.5794     0
37.5919     1
37.6045     0
 37.617     1
37.6295     1
 37.642     1
37.6545     0
 37.667     1
37.6795     2
 37.692     0
37.7045     1
 37.717     0
37.7295     0
 37.742     2
37.7545     1
37.7671     0
37.7796     1
37.7921     0
37.8046     0
37.8171     2
37.8296     2
37.8421     0
37.8546     0
37.8671     0
37.8796     0
37.8921     1
37.9046     0
37.9171     0
37.9296     0
37.9422     0
37.9547     0
37.9672     0
37.9797     1
37.9922     1
38.0047     0
38.0172     0
38.0297     0
38.0422     0
38.0547     0
38.0672     0
38.0797     1
38.0922     0
38.1047     0
38.1173     1
38.1298     0
38.1423     0
38.1548     0
38.1673     0
38.1798     0
38.1923     1
38.2048     0
38.2173     1
38.2298     0
38.2423     2
38.2548     0
38.2673     0
38.2798     1
38.2924     0
38.3049     1
38.3174     0
38.3299     0
38.3424     1
38.3549     2
38.3674     1
38.3799     0
38.3924     0
38.4049     2
38.4174     1
38.4299     1
38.4424     0
 38.455     1
38.4675     1
  38.48     1
38.4925     0
 38.505     1
38.5175     1
  38.53     0
38.5425     1
 38.555     0
38.5675     0
  38.58     0
38.5925     1
 38.605     2
38.6175     0
38.6301     1
38.6426     0
38.6551     1
38.6676     0
38.6801     0
38.6926     1
38.7051     0
38.7176     1
38.7301     1
38.7426     1
38.7551     0
38.7676     0
38.7801     0
38.7926     1
38.8052     1
38.8177     1
38.8302     1
38.8427     1
38.8552     0
38.8677     1
38.8802     0
38.8927     1
38.9052     0
38.9177     0
38.9302     0
38.9427     1
38.9552     2
38.9677     0
38.9803     0
38.9928     0
39.0053     0
39.0178     0
39.0303     0
39.0428     1
39.0553     1
39.0678     0
39.0803     1
39.0928     2
39.1053     0
39.1178     2
39.1303     0
39.1429     1
39.1554     0
39.1679     1
39.1804     0
39.1929     0
39.2054     0
39.2179     0
39.2304     0
39.2429     0
39.2554     0
39.2679     1
39.2804     0
39.2929     0
39.3054     0
 39.318     0
39.3305     0
 39.343     0
39.3555     0
 39.368     0
39.3805     0
 39.393     0
39.4055     0
 39.418     0
39.4305     0
 39.443     0
39.4555     0
 39.468     0
39.4805     0
39.4931     0
39.5056     1
39.5181     0
39.5306     1
39.5431     0
39.5556     0
39.5681     0
39.5806     0
39.5931     1
39.6056     0
39.6181     0
39.6306     0
39.6431     1
39.6556     0
39.6682     0
39.6807     0
39.6932     0
39.7057     2
39.7182     2
39.7307     0
39.7432     0
39.7557     0
39.7682     0
39.7807     0
39.7932     1
39.8057     0
39.8182     0
39.8308     1
39.8433     0
39.8558     0
39.8683     0
39.8808     0
39.8933     0
39.9058     1
39.9183     0
39.9308     1
39.9433     0
39.9558     0
39.9683     0
39.9808     0
39.9933     0
40.0059     1
40.0184     0
40.0309     0
40.0434     0
40.0559     0
40.0684     0
40.0809     0
40.0934     0
40.1059     0
40.1184     1
40.1309     0
40.1434     0
40.1559     0
40.1684     0
 40.181     1
40.1935     0
 40.206     1
40.2185     0
 40.231     0
40.2435     0
 40.256     0
40.2685     0
 40.281     0
40.2935     0
 40.306     0
40.3185     1
 40.331     1
40.3435     1
40.3561     0
40.3686     0
40.3811     1
40.3936     1
40.4061     0
40.4186     1
40.4311     0
40.4436     0
40.4561     0
40.4686     0
40.4811     0
40.4936     0
40.5061     0
40.5187     1
40.5312     1
40.5437     0
40.5562     0
40.5687     0
40.5812     0
40.5937     0
40.6062     1
40.6187     0
40.6312     0
40.6437     0
40.6562     0
40.6687     0
40.6812     0
40.6938     1
40.7063     0
40.7188     1
40.7313     0
40.7438     0
40.7563     0
40.7688     1
40.7813     0
40.7938     0
40.8063     0
40.8188     0
40.8313     0
40.8438     0
40.8563     0
40.8689     0
40.8814     0
40.8939     0
40.9064     0
40.9189     0
40.9314     0
40.9439     0
40.9564     0
40.9689     0
40.9814     0
40.9939     0
41.0064     0
41.0189     0
41.0314     0
 41.044     0
41.0565     0
 41.069     0
41.0815     0
 41.094     1
41.1065     0
 41.119     0
41.1315     0
 41.144     0
41.1565     0
 41.169     0
41.1815     0
 41.194     0
41.2066     0
41.2191     2
41.2316     2
41.2441     0
41.2566     1
41.2691     0
41.2816     0
41.2941     1
41.3066     0
41.3191     0
41.3316     0
41.3441     1
41.3566     0
41.3691     0
41.3817     0
41.3942     0
41.4067     0
41.4192     0
41.4317     0
41.4442     0
41.4567     0
41.4692     0
41.4817     0
41.4942     0
41.5067     0
41.5192     0
41.5317     0
41.5442     0
41.5568     0
41.5693     0
41.5818     1
41.5943     1
41.6068     0
41.6193     0
41.6318     0
41.6443     0
41.6568     0
41.6693     1
41.6818     0
41.6943     0
41.7068     0
41.7193     0
41.7319     0
41.7444     0
41.7569     0
41.7694     0
41.7819     0
41.7944     0
41.8069     0
41.8194     0
41.8319     0
41.8444     0
41.8569     0
41.8694     0
41.8819     0
41.8945     0
 41.907     0
41.9195     1
 41.932     0
41.9445     0
 41.957     0
41.9695     0
 41.982     0
41.9945     0
 42.007     0
42.0195     0
 42.032     0
42.0445     0
 42.057     0
42.0696     1
42.0821     0
42.0946     1
42.1071     0
42.1196     0
42.1321     1
42.1446     1
42.1571     0
42.1696     0
42.1821     0
42.1946     0
42.2071     1
42.2196     0
42.2321     0
42.2447     0
42.2572     0
42.2697     0
42.2822     1
42.2947     0
42.3072     0
42.3197     0
42.3322     0
42.3447     0
42.3572     0
42.3697     0
42.3822     0
42.3947     0
42.4072     0
42.4198     0
42.4323     0
42.4448     0
42.4573     1
42.4698     1
42.4823     1
42.4948     0
42.5073     0
42.5198     0
42.5323     0
42.5448     0
42.5573     0
42.5698     0
42.5824     0
42.5949     0
42.6074     0
42.6199     0
42.6324     0
42.6449     0
42.6574     0
42.6699     0
42.6824     0
42.6949     0
42.7074     0
42.7199     0
42.7324     0
42.7449     0
42.7575     0
  42.77     0
42.7825     0
 42.795     0
42.8075     0
  42.82     1
42.8325     0
 42.845     0
42.8575     1
  42.87     0
42.8825     0
 42.895     0
42.9075     0
  42.92     0
42.9326     0
42.9451     0
42.9576     0
42.9701     0
42.9826     0
42.9951     0
43.0076     0
43.0201     0
43.0326     0
43.0451     0
43.0576     0
43.0701     1
43.0826     0
43.0951     0
43.1077     0
43.1202     0
43.1327     0
43.1452     0
43.1577     0
43.1702     0
43.1827     0
43.1952     0
43.2077     0
43.2202     0
43.2327     0
43.2452     0
43.2577     0
43.2703     0
43.2828     0
43.2953     0
43.3078     0
43.3203     0
43.3328     0
43.3453     0
43.3578     0
43.3703     0
43.3828     0
43.3953     0
43.4078     0
43.4203     0
43.4328     0
43.4454     0
43.4579     0
43.4704     0
43.4829     0
43.4954     0
43.5079     0
43.5204     0
43.5329     0
43.5454     0
43.5579     0
43.5704     0
43.5829     0
43.5954     0
43.6079     0
43.6205     0
 43.633     0
43.6455     0
 43.658     0
43.6705     0
 43.683     0
43.6955     0
 43.708     0
43.7205     0
 43.733     0
43.7455     0
 43.758     0
43.7705     0
 43.783     0
43.7956     0
43.8081     0
43.8206     0
43.8331     0
43.8456     0
43.8581     0
43.8706     0
43.8831     0
43.8956     0
43.9081     0
43.9206     0
43.9331     1
43.9456     0
43.9582     0
43.9707     0
43.9832     0
43.9957     0
44.0082     0
44.0207     0
44.0332     0
44.0457     0
44.0582     0
44.0707     0
44.0832     0
44.0957     0
44.1082     0
44.1207     0
44.1333     0
44.1458     0
44.1583     0
44.1708     0
44.1833     0
44.1958     0
44.2083     0
44.2208     0
44.2333     0
44.2458     0
44.2583     0
44.2708     0
44.2833     0
44.2958     0
44.3084     0
44.3209     0
44.3334     0
44.3459     0
44.3584     0
44.3709     0
44.3834     0
44.3959     0
44.4084     0
44.4209     0
44.4334     0
44.4459     0
44.4584     0
44.4709     0
44.4835     0
 44.496     0
44.5085     0
 44.521     0
44.5335     0
 44.546     0
44.5585     0
 44.571     0
44.5835     0
 44.596     0
44.6085     0
 44.621     0
44.6335     0
44.6461     0
44.6586     0
44.6711     0
44.6836     0
44.6961     0
44.7086     0
44.7211     0
44.7336     0
44.7461     0
44.7586     0
44.7711     0
44.7836     0
44.7961     0
44.8086     0
44.8212     0
44.8337     0
44.8462     0
44.8587     0
44.8712     0
44.8837     0
44.8962     0
44.9087     1
44.9212     0
44.9337     0
44.9462     0
44.9587     0
44.9712     0
44.9837     0
44.9963     0
45.0088     0
45.0213     0
45.0338     0
45.0463     0
45.0588     0
45.0713     0
45.0838     0
45.0963     0
45.1088     0
45.1213     0
45.1338     0
45.1463     0
45.1588     0
45.1714     0
45.1839     0
45.1964     0
45.2089     0
45.2214     0
45.2339     0
45.2464     0
45.2589     0
45.2714     0
45.2839     0
45.2964     0
45.3089     0
45.3214     0
 45.334     0
45.3465     0
 45.359     0
45.3715     0
 45.384     0
45.3965     0
 45.409     0
45.4215     0
 45.434     0
45.4465     0
 45.459     0
45.4715     0
 45.484     1
45.4965     0
45.5091     0
45.5216     0
45.5341     0
45.5466     0
45.5591     0
45.5716     0
45.5841     0
45.5966     1
45.6091     0
45.6216     0
45.6341     0
45.6466     0
45.6591     0
45.6716     0
45.6842     0
45.6967     0
45.7092     0
45.7217     0
45.7342     0
45.7467     0
45.7592     0
45.7717     0
45.7842     0
45.7967     0
45.8092     0
45.8217     0
45.8342     0
45.8467     0
45.8593     0
45.8718     0
45.8843     0
45.8968     0
45.9093     0
45.9218     0
45.9343     0
45.9468     0
45.9593     0
45.9718     0
45.9843     0
45.9968     0
46.0093     0
46.0219     0
46.0344     0
46.0469     0
46.0594     0
46.0719     0
46.0844     0
46.0969     0
46.1094     0
46.1219     0
46.1344     0
46.1469     0
46.1594     0
46.1719     0
46.1844     0
 46.197     0
46.2095     0
 46.222     0
46.2345     0
 46.247     0
46.2595     0
 46.272     0
46.2845     0
 46.297     0
46.3095     0
 46.322     0
46.3345     0
 46.347     0
46.3595     0
46.3721     0
46.3846     0
46.3971     0
46.4096     0
46.4221     0
46.4346     0
46.4471     0
46.4596     0
46.4721     0
46.4846     0
46.4971     0
46.5096     0
46.5221     0
46.5346     0
46.5472     0
46.5597     0
46.5722     0
46.5847     0
46.5972     0
46.6097     0
46.6222     0
46.6347     0
46.6472     0
46.6597     0
46.6722     0
46.6847     0
46.6972     0
46.7098     0
46.7223     0
46.7348     0
46.7473     0
46.7598     0
46.7723     0
46.7848     0
46.7973     0
46.8098     0
46.8223     0
46.8348     0
46.8473     0
46.8598     0
46.8723     0
46.8849     0
46.8974     0
46.9099     0
46.9224     0
46.9349     0
46.9474     0
46.9599     0
46.9724     0
46.9849     0
46.9974     0
47.0099     0
47.0224     0
47.0349     0
47.0474     0
  47.06     0
47.0725     0
 47.085     0
47.0975     0
  47.11     0
47.1225     0
 47.135     0
47.1475     0
  47.16     0
47.1725     0
 47.185     0
47.1975     0
  47.21     0
47.2225     0
47.2351     0
47.2476     0
47.2601     0
47.2726     0
47.2851     0
47.2976     0
47.3101     0
47.3226     0
47.3351     0
47.3476     0
47.3601     0
47.3726     0
47.3851     0
47.3977     0
47.4102     0
47.4227     0
47.4352     0
47.4477     0
47.4602     0
47.4727     0
47.4852     0
47.4977     0
47.5102     0
47.5227     0
47.5352     0
47.5477     0
47.5602     0
47.5728     0
47.5853     0
47.5978     0
47.6103     0
47.6228     0
47.6353     0
47.6478     0
47.6603     0
47.6728     0
47.6853     0
47.6978     0
47.7103     0
47.7228     0
47.7353     0
47.7479     0
47.7604     0
47.7729     0
47.7854     0
47.7979     0
47.8104     0
47.8229     0
47.8354     0
47.8479     0
47.8604     0
47.8729     0
47.8854     0
47.8979     0
47.9104     0
 47.923     0
47.9355     0
 47.948     0
47.9605     0
 47.973     0
47.9855     0
 47.998     0
48.0105     0
 48.023     0
48.0355     0
 48.048     0
48.0605     0
 48.073     0
48.0856     0
48.0981     0
48.1106     0
48.1231     0
48.1356     0
48.1481     0
48.1606     0
48.1731     0
48.1856     0
48.1981     0
48.2106     0
48.2231     0
48.2356     0
48.2481     0
48.2607     0
48.2732     0
48.2857     0
48.2982     0
48.3107     0
48.3232     0
48.3357     0
48.3482     0
48.3607     0
48.3732     0
48.3857     0
48.3982     0
48.4107     0
48.4232     0
48.4358     0
48.4483     0
48.4608     0
48.4733     0
48.4858     0
48.4983     0
48.5108     0
48.5233     0
48.5358     0
48.5483     0
48.5608     0
48.5733     0
48.5858     0
48.5983     0
48.6109     0
48.6234     0
48.6359     0
48.6484     0
48.6609     0
48.6734     0
48.6859     0
48.6984     0
48.7109     0
48.7234     0
48.7359     0
48.7484     0
48.7609     0
48.7735     0
 48.786     0
48.7985     0
 48.811     0
48.8235     0
 48.836     0
48.8485     0
 48.861     0
48.8735     0
 48.886     0
48.8985     0
 48.911     0
48.9235     0
 48.936     0
48.9486     0
48.9611     0
48.9736     0
48.9861     0
48.9986     0
49.0111     0
49.0236     0
49.0361     0
49.0486     0
49.0611     0
49.0736     0
49.0861     0
49.0986     0
49.1111     0
49.1237     0
49.1362     0
49.1487     0
49.1612     0
49.1737     0
49.1862     0
49.1987     0
49.2112     0
49.2237     0
49.2362     0
49.2487     0
49.2612     0
49.2737     0
49.2862     0
49.2988     0
49.3113     0
49.3238     0
49.3363     0
49.3488     0
49.3613     0
49.3738     0
49.3863     0
49.3988     0
49.4113     0
49.4238     0
49.4363     0
49.4488     0
49.4614     0
49.4739     0
49.4864     0
49.4989     0
49.5114     0
49.5239     0
49.5364     0
49.5489     0
49.5614     0
49.5739     0
49.5864     0
49.5989     0
49.6114     0
49.6239     0
49.6365     0
 49.649     0
49.6615     0
 49.674     0
49.6865     0
 49.699     0
49.7115     0
 49.724     0
49.7365     0
 49.749     0
49.7615     0
 49.774     0
49.7865     0
 49.799     0
49.8116     0
49.8241     0
49.8366     0
49.8491     0
49.8616     0
49.8741     0
49.8866     0
49.8991     0
49.9116     0
49.9241     0
49.9366     0
49.9491     0
49.9616     0
49.9741     0
49.9867     0
49.9992     0
50.0117     0
50.0242     0
