RÖNTEC GmbH Berlin, Germany
Quantax 1.2

Date: 3/3/2015 12:49:26 PM
Real time: 60835
Life time: 60002
Pulse density: 5942


Detector type: XFLASH 3001
Window type: 
Detector thickness: 0.45
Si dead layer:0

Calibration, lin.: 12.507
Calibration, abs.: -1193.107
Mn FWHM: 142.37
Fano factor: 0.105
Channels: 4096

Energy Counts
-1.1931     0
-1.1806     0
-1.1681     0
-1.1556     0
-1.1431     0
-1.1306     0
-1.1181     0
-1.1056     0
 -1.093     0
-1.0805     0
 -1.068     0
-1.0555     0
 -1.043     0
-1.0305     0
 -1.018     0
-1.0055     0
 -0.993     0
-0.9805     0
 -0.968     0
-0.9555     0
 -0.943     0
-0.9305     0
-0.9179     0
-0.9054     0
-0.8929     0
-0.8804     0
-0.8679     0
-0.8554     0
-0.8429     0
-0.8304     0
-0.8179     0
-0.8054     0
-0.7929     0
-0.7804     0
-0.7679     0
-0.7554     0
-0.7428     0
-0.7303     0
-0.7178     0
-0.7053     0
-0.6928     0
-0.6803     0
-0.6678     0
-0.6553     0
-0.6428     0
-0.6303     0
-0.6178     0
-0.6053     0
-0.5928     0
-0.5803     0
-0.5677     0
-0.5552     0
-0.5427     0
-0.5302     0
-0.5177     0
-0.5052     0
-0.4927     0
-0.4802     0
-0.4677     0
-0.4552     0
-0.4427     0
-0.4302     0
-0.4177     0
-0.4051     0
-0.3926     0
-0.3801     0
-0.3676     0
-0.3551     0
-0.3426     0
-0.3301     0
-0.3176     0
-0.3051     0
-0.2926     0
-0.2801     0
-0.2676     0
-0.2551     0
-0.2426     0
  -0.23     0
-0.2175     0
 -0.205     0
-0.1925     0
  -0.18     0
-0.1675     0
 -0.155     0
-0.1425     3
  -0.13    19
-0.1175    73
 -0.105   280
-0.0925   908
  -0.08  2561
-0.0675  6197
-0.0549 13503
-0.0424 26175
-0.0299 42787
-0.0174 62042
-0.0049 78699
 0.0076 87289
 0.0201 84513
 0.0326 71515
 0.0451 52975
 0.0576 34254
 0.0701 19233
 0.0826  9599
 0.0951  4062
 0.1076  1590
 0.1202   510
 0.1327   162
 0.1452    44
 0.1577     8
 0.1702     3
 0.1827     0
 0.1952     1
 0.2077     0
 0.2202     1
 0.2327     0
 0.2452     2
 0.2577     1
 0.2702     2
 0.2828     0
 0.2953     0
 0.3078     0
 0.3203     0
 0.3328     0
 0.3453     0
 0.3578     0
 0.3703     0
 0.3828     0
 0.3953     0
 0.4078     0
 0.4203     0
 0.4328     4
 0.4453    13
 0.4579    29
 0.4704    37
 0.4829    36
 0.4954    39
 0.5079    40
 0.5204    39
 0.5329    35
 0.5454    38
 0.5579    36
 0.5704    37
 0.5829    35
 0.5954    29
 0.6079    49
 0.6204    45
  0.633    34
 0.6455    33
  0.658    26
 0.6705    27
  0.683    37
 0.6955    26
  0.708    38
 0.7205    41
  0.733    27
 0.7455    32
  0.758    33
 0.7705    35
  0.783    36
 0.7955    23
 0.8081    23
 0.8206    33
 0.8331    22
 0.8456    22
 0.8581    31
 0.8706    30
 0.8831    24
 0.8956    30
 0.9081    26
 0.9206    18
 0.9331    15
 0.9456    18
 0.9581    21
 0.9707    23
 0.9832    27
 0.9957    24
 1.0082    21
 1.0207    21
 1.0332    21
 1.0457    18
 1.0582    21
 1.0707    24
 1.0832    13
 1.0957    20
 1.1082    30
 1.1207    18
 1.1332    18
 1.1458    17
 1.1583    26
 1.1708    16
 1.1833    21
 1.1958    22
 1.2083    21
 1.2208    15
 1.2333    17
 1.2458    15
 1.2583    17
 1.2708    21
 1.2833    20
 1.2958    19
 1.3083    20
 1.3209    19
 1.3334    19
 1.3459    21
 1.3584    18
 1.3709    18
 1.3834    19
 1.3959    15
 1.4084    24
 1.4209    20
 1.4334    20
 1.4459    23
 1.4584    22
 1.4709    16
 1.4834    13
  1.496    14
 1.5085    24
  1.521    24
 1.5335    21
  1.546    22
 1.5585    20
  1.571    20
 1.5835    22
  1.596    14
 1.6085    18
  1.621    22
 1.6335    13
  1.646    20
 1.6586    15
 1.6711    25
 1.6836    27
 1.6961    28
 1.7086    39
 1.7211    49
 1.7336    31
 1.7461    58
 1.7586    41
 1.7711    49
 1.7836    49
 1.7961    39
 1.8086    37
 1.8211    33
 1.8337    30
 1.8462    35
 1.8587    23
 1.8712    25
 1.8837    33
 1.8962    33
 1.9087    23
 1.9212    25
 1.9337    22
 1.9462    23
 1.9587    24
 1.9712    29
 1.9837    28
 1.9962    21
 2.0088    19
 2.0213    25
 2.0338    25
 2.0463    20
 2.0588    16
 2.0713    25
 2.0838    18
 2.0963    20
 2.1088    12
 2.1213    28
 2.1338    21
 2.1463    25
 2.1588    17
 2.1713    34
 2.1839    25
 2.1964    28
 2.2089    38
 2.2214    30
 2.2339    37
 2.2464    45
 2.2589    65
 2.2714    98
 2.2839   133
 2.2964   179
 2.3089   208
 2.3214   296
 2.3339   330
 2.3465   340
  2.359   346
 2.3715   384
  2.384   424
 2.3965   332
  2.409   366
 2.4215   413
  2.434   378
 2.4465   357
  2.459   307
 2.4715   321
  2.484   260
 2.4965   224
  2.509   191
 2.5216   135
 2.5341   125
 2.5466    92
 2.5591    63
 2.5716    55
 2.5841    46
 2.5966    38
 2.6091    56
 2.6216    54
 2.6341    47
 2.6466    63
 2.6591    60
 2.6716    41
 2.6841    59
 2.6967    48
 2.7092    50
 2.7217    33
 2.7342    34
 2.7467    36
 2.7592    19
 2.7717    21
 2.7842    24
 2.7967    18
 2.8092    16
 2.8217    19
 2.8342    22
 2.8467    17
 2.8592    15
 2.8718    20
 2.8843    15
 2.8968    20
 2.9093    31
 2.9218    38
 2.9343    42
 2.9468    38
 2.9593    48
 2.9718    48
 2.9843    38
 2.9968    52
 3.0093    44
 3.0218    36
 3.0344    39
 3.0469    41
 3.0594    34
 3.0719    24
 3.0844    29
 3.0969    36
 3.1094    42
 3.1219    36
 3.1344    40
 3.1469    36
 3.1594    34
 3.1719    40
 3.1844    37
 3.1969    40
 3.2095    57
  3.222    57
 3.2345    86
  3.247    97
 3.2595   157
  3.272   189
 3.2845   202
  3.297   263
 3.3095   267
  3.322   327
 3.3345   315
  3.347   277
 3.3595   248
  3.372   188
 3.3846   173
 3.3971   128
 3.4096    91
 3.4221    73
 3.4346    55
 3.4471    26
 3.4596    31
 3.4721    28
 3.4846    23
 3.4971    33
 3.5096    38
 3.5221    45
 3.5346    44
 3.5471    41
 3.5597    62
 3.5722   105
 3.5847   103
 3.5972   131
 3.6097   150
 3.6222   230
 3.6347   325
 3.6472   425
 3.6597   453
 3.6722   518
 3.6847   518
 3.6972   621
 3.7097   609
 3.7223   590
 3.7348   514
 3.7473   437
 3.7598   356
 3.7723   263
 3.7848   180
 3.7973   120
 3.8098    80
 3.8223    69
 3.8348    38
 3.8473    33
 3.8598    21
 3.8723    24
 3.8848    20
 3.8974    22
 3.9099    23
 3.9224    28
 3.9349    47
 3.9474    42
 3.9599    62
 3.9724    67
 3.9849    95
 3.9974    90
 4.0099   101
 4.0224    88
 4.0349    96
 4.0474    93
 4.0599    66
 4.0725    70
  4.085    68
 4.0975    50
   4.11    37
 4.1225    32
  4.135    28
 4.1475    29
   4.16    18
 4.1725    16
  4.185     8
 4.1975    13
   4.21    19
 4.2225    18
  4.235    10
 4.2476     6
 4.2601    11
 4.2726    21
 4.2851    14
 4.2976    15
 4.3101    14
 4.3226    14
 4.3351    11
 4.3476    18
 4.3601    23
 4.3726    21
 4.3851    26
 4.3976    28
 4.4102    31
 4.4227    36
 4.4352    38
 4.4477    46
 4.4602    41
 4.4727    57
 4.4852    76
 4.4977    75
 4.5102    68
 4.5227    72
 4.5352    52
 4.5477    72
 4.5602    44
 4.5727    40
 4.5853    38
 4.5978    32
 4.6103    23
 4.6228    17
 4.6353    23
 4.6478    24
 4.6603    14
 4.6728    16
 4.6853    15
 4.6978    19
 4.7103    18
 4.7228    13
 4.7353    12
 4.7478    14
 4.7604    14
 4.7729    19
 4.7854    22
 4.7979    29
 4.8104    22
 4.8229    24
 4.8354    20
 4.8479    20
 4.8604    29
 4.8729    20
 4.8854    32
 4.8979    22
 4.9104    27
 4.9229    25
 4.9355    26
  4.948    24
 4.9605    22
  4.973    22
 4.9855    27
  4.998    23
 5.0105    15
  5.023    15
 5.0355    20
  5.048    21
 5.0605    15
  5.073    14
 5.0855    24
 5.0981    20
 5.1106    14
 5.1231    26
 5.1356    13
 5.1481    15
 5.1606    27
 5.1731    16
 5.1856    17
 5.1981    12
 5.2106    10
 5.2231    15
 5.2356    21
 5.2481    23
 5.2606    24
 5.2732    18
 5.2857    30
 5.2982    11
 5.3107    20
 5.3232    19
 5.3357    24
 5.3482    24
 5.3607    23
 5.3732    11
 5.3857    13
 5.3982    14
 5.4107    22
 5.4232    21
 5.4357    22
 5.4483    27
 5.4608    33
 5.4733    22
 5.4858    21
 5.4983    26
 5.5108    27
 5.5233    24
 5.5358    19
 5.5483    21
 5.5608    24
 5.5733    14
 5.5858    14
 5.5983    30
 5.6108    33
 5.6234    23
 5.6359    26
 5.6484    28
 5.6609    15
 5.6734    24
 5.6859    22
 5.6984    35
 5.7109    39
 5.7234    22
 5.7359    36
 5.7484    30
 5.7609    31
 5.7734    21
  5.786    21
 5.7985    22
  5.811    32
 5.8235    29
  5.836    36
 5.8485    41
  5.861    38
 5.8735    29
  5.886    21
 5.8985    37
  5.911    37
 5.9235    36
  5.936    23
 5.9485    32
 5.9611    35
 5.9736    27
 5.9861    20
 5.9986    30
 6.0111    25
 6.0236    20
 6.0361    35
 6.0486    18
 6.0611    29
 6.0736    24
 6.0861    27
 6.0986    32
 6.1111    27
 6.1236    25
 6.1362    20
 6.1487    24
 6.1612    27
 6.1737    24
 6.1862    37
 6.1987    22
 6.2112    27
 6.2237    21
 6.2362    31
 6.2487    27
 6.2612    43
 6.2737    36
 6.2862    61
 6.2988    65
 6.3113    82
 6.3238   104
 6.3363   107
 6.3488   130
 6.3613   178
 6.3738   186
 6.3863   201
 6.3988   189
 6.4113   211
 6.4238   189
 6.4363   180
 6.4488   197
 6.4613   132
 6.4739   135
 6.4864   119
 6.4989    94
 6.5114    77
 6.5239    66
 6.5364    46
 6.5489    41
 6.5614    34
 6.5739    45
 6.5864    29
 6.5989    26
 6.6114    34
 6.6239    31
 6.6364    26
  6.649    26
 6.6615    36
  6.674    29
 6.6865    27
  6.699    38
 6.7115    32
  6.724    28
 6.7365    32
  6.749    37
 6.7615    34
  6.774    24
 6.7865    35
  6.799    25
 6.8115    31
 6.8241    31
 6.8366    35
 6.8491    33
 6.8616    44
 6.8741    29
 6.8866    33
 6.8991    41
 6.9116    41
 6.9241    35
 6.9366    38
 6.9491    36
 6.9616    38
 6.9741    51
 6.9867    56
 6.9992    49
 7.0117    51
 7.0242    57
 7.0367    57
 7.0492    52
 7.0617    66
 7.0742    68
 7.0867    64
 7.0992    58
 7.1117    57
 7.1242    50
 7.1367    50
 7.1492    64
 7.1618    46
 7.1743    47
 7.1868    49
 7.1993    49
 7.2118    47
 7.2243    52
 7.2368    56
 7.2493    44
 7.2618    37
 7.2743    60
 7.2868    45
 7.2993    67
 7.3118    48
 7.3243    55
 7.3369    66
 7.3494    66
 7.3619    61
 7.3744    71
 7.3869    88
 7.3994    66
 7.4119    70
 7.4244    78
 7.4369    71
 7.4494    63
 7.4619    71
 7.4744    67
 7.4869    68
 7.4994    56
  7.512    54
 7.5245    47
  7.537    64
 7.5495    59
  7.562    63
 7.5745    43
  7.587    57
 7.5995    47
  7.612    46
 7.6245    49
  7.637    45
 7.6495    56
  7.662    49
 7.6746    64
 7.6871    38
 7.6996    61
 7.7121    56
 7.7246    40
 7.7371    51
 7.7496    58
 7.7621    60
 7.7746    58
 7.7871    72
 7.7996    48
 7.8121    48
 7.8246    63
 7.8371    68
 7.8497    49
 7.8622    76
 7.8747    71
 7.8872    75
 7.8997    82
 7.9122    87
 7.9247    90
 7.9372    92
 7.9497   121
 7.9622   125
 7.9747   143
 7.9872   139
 7.9997   174
 8.0122   158
 8.0248   178
 8.0373   176
 8.0498   187
 8.0623   178
 8.0748   176
 8.0873   200
 8.0998   166
 8.1123   202
 8.1248   197
 8.1373   181
 8.1498   174
 8.1623   181
 8.1748   188
 8.1873   167
 8.1999   195
 8.2124   198
 8.2249   209
 8.2374   251
 8.2499   280
 8.2624   318
 8.2749   347
 8.2874   416
 8.2999   520
 8.3124   557
 8.3249   638
 8.3374   734
 8.3499   871
 8.3625   882
  8.375   892
 8.3875  1009
    8.4   974
 8.4125   892
  8.425   880
 8.4375   765
   8.45   736
 8.4625   619
  8.475   525
 8.4875   461
    8.5   365
 8.5125   311
  8.525   244
 8.5376   166
 8.5501   153
 8.5626   123
 8.5751   108
 8.5876   123
 8.6001    82
 8.6126    61
 8.6251    83
 8.6376    87
 8.6501    95
 8.6626    79
 8.6751    90
 8.6876    74
 8.7001    85
 8.7127    78
 8.7252    84
 8.7377    71
 8.7502   103
 8.7627    89
 8.7752    96
 8.7877    92
 8.8002    82
 8.8127    86
 8.8252    90
 8.8377    81
 8.8502    76
 8.8627    91
 8.8752    86
 8.8878    78
 8.9003    84
 8.9128    83
 8.9253    96
 8.9378   109
 8.9503    84
 8.9628    99
 8.9753   101
 8.9878   103
 9.0003    93
 9.0128   115
 9.0253   117
 9.0378   135
 9.0504   146
 9.0629   168
 9.0754   238
 9.0879   224
 9.1004   260
 9.1129   289
 9.1254   365
 9.1379   409
 9.1504   384
 9.1629   428
 9.1754   404
 9.1879   498
 9.2004   449
 9.2129   453
 9.2255   403
  9.238   422
 9.2505   381
  9.263   358
 9.2755   310
  9.288   316
 9.3005   270
  9.313   251
 9.3255   245
  9.338   205
 9.3505   205
  9.363   210
 9.3755   212
  9.388   186
 9.4006   207
 9.4131   202
 9.4256   197
 9.4381   231
 9.4506   258
 9.4631   206
 9.4756   249
 9.4881   293
 9.5006   250
 9.5131   293
 9.5256   341
 9.5381   385
 9.5506   381
 9.5631   441
 9.5757   472
 9.5882   533
 9.6007   595
 9.6132   643
 9.6257   675
 9.6382   750
 9.6507   805
 9.6632   766
 9.6757   855
 9.6882   784
 9.7007   799
 9.7132   775
 9.7257   680
 9.7383   647
 9.7508   551
 9.7633   558
 9.7758   506
 9.7883   462
 9.8008   398
 9.8133   314
 9.8258   340
 9.8383   303
 9.8508   328
 9.8633   286
 9.8758   334
 9.8883   306
 9.9008   309
 9.9134   363
 9.9259   353
 9.9384   307
 9.9509   332
 9.9634   327
 9.9759   335
 9.9884   345
10.0009   304
10.0134   275
10.0259   271
10.0384   221
10.0509   201
10.0634   171
10.0759   139
10.0885   170
 10.101   164
10.1135   131
 10.126    91
10.1385   110
 10.151   116
10.1635   106
 10.176   102
10.1885   111
 10.201   100
10.2135   100
 10.226   118
10.2385   139
 10.251   134
10.2636   158
10.2761   167
10.2886   207
10.3011   293
10.3136   345
10.3261   456
10.3386   542
10.3511   680
10.3636   962
10.3761  1240
10.3886  1380
10.4011  1845
10.4136  2254
10.4262  2745
10.4387  3264
10.4512  3915
10.4637  4350
10.4762  5068
10.4887  5609
10.5012  6208
10.5137  6437
10.5262  6655
10.5387  6890
10.5512  6829
10.5637  6799
10.5762  6291
10.5887  6023
10.6013  5436
10.6138  4748
10.6263  3983
10.6388  3345
10.6513  2844
10.6638  2259
10.6763  1782
10.6888  1309
10.7013  1040
10.7138   715
10.7263   593
10.7388   440
10.7513   287
10.7638   239
10.7764   170
10.7889   157
10.8014   114
10.8139    92
10.8264    98
10.8389    80
10.8514    93
10.8639   104
10.8764    74
10.8889   100
10.9014    65
10.9139    77
10.9264    70
10.9389    88
10.9515    70
 10.964    61
10.9765    61
 10.989    63
11.0015    66
 11.014    62
11.0265    65
 11.039    67
11.0515    68
 11.064    51
11.0765    61
 11.089    48
11.1015    70
11.1141    76
11.1266    74
11.1391    63
11.1516    70
11.1641   102
11.1766   101
11.1891   107
11.2016    93
11.2141   137
11.2266   121
11.2391   173
11.2516   174
11.2641   191
11.2766   173
11.2892   187
11.3017   199
11.3142   241
11.3267   224
11.3392   243
11.3517   236
11.3642   230
11.3767   216
11.3892   228
11.4017   216
11.4142   208
11.4267   191
11.4392   194
11.4517   180
11.4643   159
11.4768   182
11.4893   159
11.5018   143
11.5143   102
11.5268   124
11.5393   124
11.5518   112
11.5643   112
11.5768   112
11.5893   105
11.6018    97
11.6143    92
11.6268    89
11.6394    88
11.6519    84
11.6644    75
11.6769    72
11.6894    64
11.7019    75
11.7144    78
11.7269    65
11.7394    52
11.7519    61
11.7644    52
11.7769    49
11.7894    48
 11.802    72
11.8145    37
 11.827    40
11.8395    49
 11.852    44
11.8645    52
 11.877    59
11.8895    58
 11.902    64
11.9145    62
 11.927    54
11.9395    54
 11.952    70
11.9645    60
11.9771    84
11.9896    76
12.0021    74
12.0146    83
12.0271    85
12.0396   132
12.0521   111
12.0646   134
12.0771   117
12.0896   157
12.1021   171
12.1146   213
12.1271   181
12.1396   191
12.1522   205
12.1647   255
12.1772   277
12.1897   277
12.2022   270
12.2147   314
12.2272   312
12.2397   362
12.2522   352
12.2647   344
12.2772   346
12.2897   375
12.3022   377
12.3147   355
12.3273   346
12.3398   412
12.3523   356
12.3648   387
12.3773   394
12.3898   442
12.4023   478
12.4148   540
12.4273   632
12.4398   782
12.4523  1090
12.4648  1244
12.4773  1555
12.4899  1873
12.5024  2216
12.5149  2628
12.5274  3211
12.5399  3534
12.5524  4031
12.5649  4313
12.5774  4638
12.5899  4767
12.6024  4930
12.6149  4809
12.6274  4764
12.6399  4487
12.6524  4191
 12.665  3806
12.6775  3440
  12.69  3077
12.7025  2692
 12.715  2197
12.7275  1906
  12.74  1603
12.7525  1353
 12.765  1155
12.7775   985
  12.79   749
12.8025   709
 12.815   587
12.8275   522
12.8401   476
12.8526   356
12.8651   356
12.8776   312
12.8901   289
12.9026   274
12.9151   270
12.9276   245
12.9401   239
12.9526   205
12.9651   191
12.9776   209
12.9901   238
13.0026   209
13.0152   208
13.0277   221
13.0402   215
13.0527   180
13.0652   172
13.0777   180
13.0902   138
13.1027   115
13.1152   114
13.1277   107
13.1402    70
13.1527    56
13.1652    64
13.1778    49
13.1903    62
13.2028    58
13.2153    48
13.2278    56
13.2403    44
13.2528    39
13.2653    48
13.2778    43
13.2903    40
13.3028    47
13.3153    57
13.3278    50
13.3403    44
13.3529    54
13.3654    62
13.3779    45
13.3904    39
13.4029    40
13.4154    42
13.4279    46
13.4404    28
13.4529    32
13.4654    33
13.4779    29
13.4904    34
13.5029    16
13.5154    24
 13.528    22
13.5405    23
 13.553    14
13.5655    25
 13.578     7
13.5905    26
 13.603    25
13.6155    20
 13.628    23
13.6405    26
 13.653    24
13.6655    29
 13.678    20
13.6905    22
13.7031    21
13.7156    27
13.7281    20
13.7406    35
13.7531    20
13.7656    28
13.7781    16
13.7906    19
13.8031    17
13.8156    20
13.8281    26
13.8406    24
13.8531    22
13.8657    20
13.8782    15
13.8907    20
13.9032     7
13.9157    21
13.9282    19
13.9407    22
13.9532    18
13.9657    17
13.9782    17
13.9907    25
14.0032    23
14.0157    27
14.0282    23
14.0408    15
14.0533    21
14.0658    27
14.0783    28
14.0908    27
14.1033    25
14.1158    20
14.1283    23
14.1408    33
14.1533    27
14.1658    26
14.1783    34
14.1908    41
14.2033    39
14.2159    47
14.2284    37
14.2409    40
14.2534    36
14.2659    44
14.2784    27
14.2909    41
14.3034    40
14.3159    46
14.3284    46
14.3409    23
14.3534    46
14.3659    25
14.3784    23
 14.391    40
14.4035    27
 14.416    37
14.4285    25
 14.441    42
14.4535    33
 14.466    37
14.4785    41
 14.491    40
14.5035    31
 14.516    46
14.5285    49
 14.541    56
14.5536    79
14.5661   101
14.5786   123
14.5911   120
14.6036   158
14.6161   210
14.6286   238
14.6411   286
14.6536   323
14.6661   387
14.6786   416
14.6911   428
14.7036   449
14.7161   520
14.7287   534
14.7412   555
14.7537   540
14.7662   544
14.7787   555
14.7912   463
14.8037   446
14.8162   410
14.8287   376
14.8412   288
14.8537   278
14.8662   238
14.8787   189
14.8912   161
14.9038   154
14.9163   115
14.9288   109
14.9413    94
14.9538    91
14.9663    76
14.9788    97
14.9913    89
15.0038    95
15.0163    94
15.0288   108
15.0413   119
15.0538   128
15.0663   120
15.0789   125
15.0914   146
15.1039   147
15.1164   177
15.1289   185
15.1414   191
15.1539   145
15.1664   170
15.1789   173
15.1914   152
15.2039   122
15.2164   141
15.2289   140
15.2415   114
 15.254   106
15.2665    93
 15.279    86
15.2915    63
 15.304    71
15.3165    48
 15.329    53
15.3415    37
 15.354    41
15.3665    28
 15.379    24
15.3915    25
 15.404    20
15.4166    21
15.4291    19
15.4416    21
15.4541    18
15.4666    14
15.4791    19
15.4916    20
15.5041    21
15.5166    17
15.5291    18
15.5416    24
15.5541    20
15.5666    26
15.5791    35
15.5917    20
15.6042    25
15.6167    32
15.6292    21
15.6417    44
15.6542    35
15.6667    36
15.6792    48
15.6917    31
15.7042    40
15.7167    45
15.7292    52
15.7417    42
15.7542    33
15.7668    52
15.7793    46
15.7918    41
15.8043    35
15.8168    33
15.8293    33
15.8418    29
15.8543    35
15.8668    30
15.8793    27
15.8918    21
15.9043    14
15.9168    14
15.9294    17
15.9419    15
15.9544    18
15.9669    13
15.9794    14
15.9919    15
16.0044     6
16.0169     5
16.0294    12
16.0419    14
16.0544    10
16.0669    13
16.0794    14
16.0919    16
16.1045    16
 16.117    11
16.1295     7
 16.142     7
16.1545     8
 16.167     7
16.1795     7
 16.192    14
16.2045    14
 16.217    16
16.2295    14
 16.242    10
16.2545    13
 16.267     8
16.2796     6
16.2921     8
16.3046    12
16.3171    10
16.3296    15
16.3421    10
16.3546     8
16.3671    13
16.3796    10
16.3921     9
16.4046     7
16.4171     8
16.4296    11
16.4421    16
16.4547    11
16.4672    11
16.4797    17
16.4922    11
16.5047    13
16.5172    14
16.5297    20
16.5422    11
16.5547     7
16.5672    14
16.5797    16
16.5922    16
16.6047    15
16.6173    17
16.6298    12
16.6423    11
16.6548    13
16.6673    11
16.6798    10
16.6923    11
16.7048    11
16.7173     5
16.7298    10
16.7423     8
16.7548    14
16.7673    15
16.7798     9
16.7924    17
16.8049    17
16.8174     8
16.8299    16
16.8424    14
16.8549    15
16.8674     8
16.8799    17
16.8924     9
16.9049     6
16.9174    12
16.9299    23
16.9424    14
16.9549    14
16.9675    20
  16.98     8
16.9925    12
 17.005     7
17.0175    10
  17.03    11
17.0425    22
 17.055    10
17.0675     9
  17.08    12
17.0925    13
 17.105    17
17.1175    10
  17.13    17
17.1426    10
17.1551    15
17.1676    13
17.1801     9
17.1926    17
17.2051     8
17.2176     8
17.2301    11
17.2426     9
17.2551    12
17.2676     6
17.2801    15
17.2926     8
17.3052     7
17.3177     8
17.3302    10
17.3427    11
17.3552    20
17.3677    16
17.3802    13
17.3927    19
17.4052    13
17.4177    12
17.4302    11
17.4427    11
17.4552    21
17.4677     7
17.4803    14
17.4928     9
17.5053    12
17.5178    12
17.5303     8
17.5428    16
17.5553    18
17.5678    14
17.5803    15
17.5928    12
17.6053    16
17.6178    21
17.6303    13
17.6428    18
17.6554    16
17.6679    13
17.6804     8
17.6929    16
17.7054     9
17.7179     9
17.7304    13
17.7429    14
17.7554    13
17.7679    15
17.7804     7
17.7929    14
17.8054    11
17.8179     8
17.8305     9
 17.843    13
17.8555     7
 17.868    11
17.8805    19
 17.893    13
17.9055    10
 17.918    12
17.9305     8
 17.943    11
17.9555    11
 17.968    20
17.9805     6
17.9931    10
18.0056    14
18.0181     9
18.0306    10
18.0431    11
18.0556    14
18.0681    14
18.0806     9
18.0931     5
18.1056    14
18.1181    15
18.1306    13
18.1431    13
18.1556    13
18.1682     9
18.1807    18
18.1932    10
18.2057    12
18.2182     7
18.2307     7
18.2432    19
18.2557    13
18.2682    10
18.2807     6
18.2932    12
18.3057    11
18.3182    15
18.3307    10
18.3433     6
18.3558    12
18.3683    12
18.3808    12
18.3933    11
18.4058    10
18.4183     8
18.4308     7
18.4433     5
18.4558    18
18.4683    12
18.4808    13
18.4933    10
18.5058    13
18.5184    11
18.5309    12
18.5434     9
18.5559    15
18.5684    10
18.5809     8
18.5934     7
18.6059    11
18.6184    10
18.6309    12
18.6434     6
18.6559    13
18.6684    12
 18.681    11
18.6935     6
 18.706     8
18.7185    11
 18.731     8
18.7435    15
 18.756     6
18.7685    11
 18.781     7
18.7935    10
 18.806     8
18.8185    13
 18.831    12
18.8435    17
18.8561     5
18.8686    10
18.8811    13
18.8936    13
18.9061    11
18.9186     8
18.9311    13
18.9436     9
18.9561    14
18.9686    10
18.9811    10
18.9936    14
19.0061    11
19.0186     9
19.0312     8
19.0437    10
19.0562    11
19.0687    12
19.0812    11
19.0937    15
19.1062    16
19.1187    11
19.1312     9
19.1437    12
19.1562     7
19.1687     8
19.1812     9
19.1937    10
19.2063     8
19.2188     8
19.2313    13
19.2438    14
19.2563    10
19.2688    12
19.2813     7
19.2938     9
19.3063    11
19.3188     9
19.3313     8
19.3438     9
19.3563     7
19.3689    11
19.3814     7
19.3939    15
19.4064    11
19.4189    11
19.4314     9
19.4439     6
19.4564     8
19.4689    17
19.4814     9
19.4939     9
19.5064     4
19.5189     5
19.5314    13
 19.544     7
19.5565    11
 19.569    12
19.5815    12
 19.594     9
19.6065    13
 19.619     9
19.6315     7
 19.644    11
19.6565     4
 19.669     8
19.6815     8
 19.694     8
19.7065     9
19.7191    12
19.7316    11
19.7441    15
19.7566     5
19.7691     8
19.7816     9
19.7941     5
19.8066     7
19.8191     8
19.8316     9
19.8441    11
19.8566    10
19.8691     8
19.8816    11
19.8942     8
19.9067     8
19.9192    10
19.9317     9
19.9442    11
19.9567    16
19.9692     7
19.9817     9
19.9942     8
20.0067    10
20.0192    12
20.0317     5
20.0442    15
20.0568     8
20.0693    10
20.0818     5
20.0943     8
20.1068    11
20.1193    13
20.1318     9
20.1443     8
20.1568     8
20.1693     8
20.1818     9
20.1943     7
20.2068    10
20.2193    10
20.2319    12
20.2444     8
20.2569    13
20.2694     7
20.2819    11
20.2944     8
20.3069    13
20.3194     7
20.3319    12
20.3444     7
20.3569     8
20.3694     7
20.3819     8
20.3944     5
 20.407    13
20.4195     4
 20.432    14
20.4445     5
 20.457     1
20.4695     8
 20.482     9
20.4945    16
 20.507     7
20.5195     8
 20.532     9
20.5445     9
 20.557     6
20.5695     6
20.5821     9
20.5946     5
20.6071     4
20.6196    18
20.6321     6
20.6446     9
20.6571     8
20.6696     2
20.6821     9
20.6946     5
20.7071     7
20.7196    10
20.7321     9
20.7447    11
20.7572    10
20.7697     8
20.7822    13
20.7947     8
20.8072    10
20.8197    10
20.8322    15
20.8447     7
20.8572     5
20.8697     9
20.8822    11
20.8947     9
20.9072    13
20.9198     4
20.9323     4
20.9448    11
20.9573     5
20.9698    10
20.9823    13
20.9948    11
21.0073    10
21.0198    11
21.0323     6
21.0448     3
21.0573     4
21.0698     9
21.0823     9
21.0949     3
21.1074    11
21.1199     9
21.1324     7
21.1449     8
21.1574    10
21.1699    10
21.1824     6
21.1949     7
21.2074    14
21.2199     7
21.2324     5
21.2449     8
21.2574     3
  21.27     9
21.2825    12
 21.295     9
21.3075     7
  21.32     6
21.3325     4
 21.345    13
21.3575    11
  21.37     8
21.3825    10
 21.395     9
21.4075     5
  21.42     5
21.4326     5
21.4451    10
21.4576     5
21.4701     8
21.4826     8
21.4951    10
21.5076    11
21.5201     8
21.5326    11
21.5451     6
21.5576     8
21.5701     6
21.5826    10
21.5951     3
21.6077     4
21.6202    10
21.6327     7
21.6452    11
21.6577     7
21.6702     5
21.6827    13
21.6952     7
21.7077     7
21.7202     8
21.7327     5
21.7452     6
21.7577     9
21.7702     6
21.7828     7
21.7953     8
21.8078     4
21.8203    12
21.8328     7
21.8453     5
21.8578    13
21.8703     8
21.8828     7
21.8953    10
21.9078     8
21.9203     5
21.9328     5
21.9453     4
21.9579     9
21.9704    11
21.9829    11
21.9954     6
22.0079    12
22.0204     5
22.0329     4
22.0454    13
22.0579     6
22.0704     8
22.0829     7
22.0954     8
22.1079    11
22.1205     7
 22.133     8
22.1455    10
 22.158     9
22.1705     9
 22.183     6
22.1955     9
 22.208     7
22.2205    13
 22.233     8
22.2455     4
 22.258    10
22.2705     6
 22.283     9
22.2956    10
22.3081     9
22.3206     9
22.3331     6
22.3456     8
22.3581    12
22.3706     5
22.3831     5
22.3956     4
22.4081     9
22.4206     5
22.4331     8
22.4456     5
22.4581     2
22.4707     4
22.4832     9
22.4957     9
22.5082     2
22.5207     6
22.5332     9
22.5457    10
22.5582     3
22.5707     7
22.5832     4
22.5957     5
22.6082     5
22.6207     4
22.6332     6
22.6458     8
22.6583     7
22.6708     6
22.6833     8
22.6958     7
22.7083     5
22.7208     5
22.7333     3
22.7458     7
22.7583     1
22.7708     2
22.7833     8
22.7958    11
22.8084     8
22.8209     6
22.8334     5
22.8459     6
22.8584     8
22.8709     7
22.8834    11
22.8959     4
22.9084    11
22.9209    12
22.9334    11
22.9459     8
22.9584     7
22.9709    13
22.9835     9
 22.996     4
23.0085     5
 23.021    13
23.0335     8
 23.046     8
23.0585     4
 23.071     5
23.0835     7
 23.096     9
23.1085     4
 23.121     5
23.1335     6
 23.146     5
23.1586    12
23.1711     3
23.1836     4
23.1961     8
23.2086     2
23.2211     6
23.2336     4
23.2461     6
23.2586     7
23.2711     8
23.2836     8
23.2961     5
23.3086     2
23.3211     9
23.3337     9
23.3462     7
23.3587     5
23.3712     9
23.3837     3
23.3962     5
23.4087     9
23.4212     3
23.4337     3
23.4462     7
23.4587     5
23.4712     7
23.4837    13
23.4963     5
23.5088     8
23.5213     7
23.5338    12
23.5463     7
23.5588     5
23.5713     4
23.5838    10
23.5963     9
23.6088     3
23.6213     9
23.6338     5
23.6463     8
23.6588     8
23.6714     1
23.6839     8
23.6964     3
23.7089     4
23.7214     7
23.7339     7
23.7464     7
23.7589     3
23.7714     9
23.7839     5
23.7964     5
23.8089     6
23.8214     5
23.8339     1
23.8465     4
 23.859     3
23.8715     6
 23.884     3
23.8965     1
 23.909     4
23.9215     3
 23.934    13
23.9465     6
 23.959     7
23.9715     5
 23.984     3
23.9965     5
 24.009     5
24.0216     4
24.0341     6
24.0466     4
24.0591     5
24.0716    12
24.0841     4
24.0966     3
24.1091     5
24.1216     2
24.1341     5
24.1466     5
24.1591     3
24.1716     8
24.1842     4
24.1967     8
24.2092     7
24.2217     8
24.2342     5
24.2467    12
24.2592     4
24.2717     6
24.2842     5
24.2967     6
24.3092     5
24.3217     7
24.3342     3
24.3467     4
24.3593     4
24.3718     9
24.3843     1
24.3968     3
24.4093     5
24.4218     5
24.4343     5
24.4468     2
24.4593     3
24.4718     5
24.4843     6
24.4968     6
24.5093     5
24.5218     6
24.5344    10
24.5469     4
24.5594     3
24.5719    11
24.5844     4
24.5969     1
24.6094     7
24.6219     4
24.6344     5
24.6469     7
24.6594     5
24.6719     7
24.6844     5
24.6969     4
24.7095     6
 24.722     3
24.7345     5
 24.747     4
24.7595     2
 24.772     7
24.7845    10
 24.797     6
24.8095     5
 24.822     8
24.8345     2
 24.847     7
24.8595    10
24.8721     6
24.8846     7
24.8971     5
24.9096     5
24.9221     4
24.9346     5
24.9471     3
24.9596     3
24.9721     6
24.9846     4
24.9971     4
25.0096     6
25.0221     3
25.0346     3
25.0472     6
25.0597     5
25.0722     6
25.0847    11
25.0972     6
25.1097     8
25.1222     8
25.1347     4
25.1472     7
25.1597    10
25.1722     5
25.1847     4
25.1972     3
25.2097     4
25.2223     1
25.2348     3
25.2473     4
25.2598     5
25.2723     6
25.2848     5
25.2973    10
25.3098     5
25.3223     4
25.3348     2
25.3473     9
25.3598     6
25.3723     8
25.3848     5
25.3974     5
25.4099     4
25.4224     3
25.4349     2
25.4474     2
25.4599     9
25.4724     8
25.4849     3
25.4974     7
25.5099     8
25.5224     3
25.5349     3
25.5474     2
  25.56     7
25.5725     5
 25.585     3
25.5975     4
  25.61     3
25.6225     1
 25.635     3
25.6475     3
  25.66     5
25.6725     4
 25.685     5
25.6975     8
  25.71     3
25.7225     1
25.7351     3
25.7476     4
25.7601     4
25.7726     3
25.7851     5
25.7976     2
25.8101     6
25.8226     6
25.8351     5
25.8476     2
25.8601     3
25.8726     3
25.8851     4
25.8976     3
25.9102     4
25.9227     6
25.9352     5
25.9477     8
25.9602     4
25.9727     4
25.9852     6
25.9977     3
26.0102     6
26.0227     1
26.0352     4
26.0477     4
26.0602     3
26.0727     7
26.0853     7
26.0978     4
26.1103     1
26.1228     0
26.1353     6
26.1478     5
26.1603     5
26.1728     6
26.1853     5
26.1978     5
26.2103     2
26.2228     4
26.2353     2
26.2479     4
26.2604    12
26.2729     4
26.2854     4
26.2979     7
26.3104     9
26.3229     5
26.3354     4
26.3479     4
26.3604     2
26.3729     5
26.3854     4
26.3979     3
26.4104     5
 26.423     5
26.4355     1
 26.448     3
26.4605     3
 26.473     8
26.4855     1
 26.498     5
26.5105     4
 26.523     4
26.5355     6
 26.548     6
26.5605     2
 26.573     3
26.5855     5
26.5981     2
26.6106     4
26.6231     3
26.6356     3
26.6481     5
26.6606     2
26.6731     2
26.6856     3
26.6981     6
26.7106     4
26.7231     4
26.7356     7
26.7481     5
26.7606     3
26.7732     4
26.7857     1
26.7982     4
26.8107     7
26.8232     2
26.8357     7
26.8482     3
26.8607     2
26.8732     6
26.8857     2
26.8982     4
26.9107     2
26.9232     1
26.9358     4
26.9483     1
26.9608     0
26.9733     4
26.9858     2
26.9983     5
27.0108     4
27.0233     2
27.0358     2
27.0483     2
27.0608     6
27.0733     5
27.0858     3
27.0983     6
27.1109     2
27.1234     1
27.1359     0
27.1484     5
27.1609     1
27.1734     3
27.1859     2
27.1984     7
27.2109     3
27.2234     1
27.2359     2
27.2484     5
27.2609     2
27.2734     2
 27.286     4
27.2985     4
 27.311     3
27.3235     4
 27.336     5
27.3485     4
 27.361     3
27.3735     4
 27.386     2
27.3985     3
 27.411     3
27.4235     2
 27.436     3
27.4485     6
27.4611     2
27.4736     3
27.4861     4
27.4986     6
27.5111     2
27.5236     4
27.5361     2
27.5486     3
27.5611     4
27.5736     6
27.5861     3
27.5986     3
27.6111     2
27.6237     3
27.6362     4
27.6487     5
27.6612     1
27.6737     5
27.6862     4
27.6987     4
27.7112     2
27.7237     4
27.7362     1
27.7487     2
27.7612     1
27.7737     3
27.7862     5
27.7988     1
27.8113     3
27.8238     3
27.8363     4
27.8488     5
27.8613     3
27.8738     8
27.8863     1
27.8988     4
27.9113     5
27.9238     6
27.9363     6
27.9488     2
27.9613     7
27.9739     4
27.9864     2
27.9989     2
28.0114     2
28.0239     2
28.0364     2
28.0489     1
28.0614     4
28.0739     4
28.0864     5
28.0989     3
28.1114     2
28.1239     3
28.1364     4
 28.149     3
28.1615     4
 28.174     0
28.1865     1
 28.199     7
28.2115     4
 28.224     0
28.2365     1
 28.249     1
28.2615     6
 28.274     3
28.2865     3
 28.299     2
28.3116     0
28.3241     6
28.3366     2
28.3491     2
28.3616     3
28.3741     4
28.3866     4
28.3991     7
28.4116     0
28.4241     3
28.4366     3
28.4491     4
28.4616     1
28.4741     3
28.4867     2
28.4992     5
28.5117     4
28.5242     4
28.5367     0
28.5492     6
28.5617     6
28.5742     2
28.5867     4
28.5992     2
28.6117     5
28.6242     5
28.6367     2
28.6492     4
28.6618     0
28.6743     1
28.6868     1
28.6993     2
28.7118     5
28.7243     3
28.7368     2
28.7493     2
28.7618     5
28.7743     2
28.7868     2
28.7993     2
28.8118     5
28.8243     6
28.8369     4
28.8494     2
28.8619     3
28.8744     4
28.8869     1
28.8994     1
28.9119     2
28.9244     3
28.9369     2
28.9494     4
28.9619     1
28.9744     4
28.9869     3
28.9995     2
 29.012     1
29.0245     2
 29.037     0
29.0495     2
 29.062     2
29.0745     1
 29.087     2
29.0995     4
 29.112     4
29.1245     5
 29.137     3
29.1495     5
 29.162     2
29.1746     3
29.1871     3
29.1996     0
29.2121     3
29.2246     3
29.2371     7
29.2496     1
29.2621     3
29.2746     1
29.2871     1
29.2996     1
29.3121     5
29.3246     0
29.3371     3
29.3497     2
29.3622     4
29.3747     3
29.3872     1
29.3997     0
29.4122     1
29.4247     5
29.4372     2
29.4497     2
29.4622     0
29.4747     5
29.4872     2
29.4997     2
29.5123     1
29.5248     1
29.5373     2
29.5498     5
29.5623     1
29.5748     2
29.5873     2
29.5998     4
29.6123     1
29.6248     1
29.6373     2
29.6498     3
29.6623     6
29.6748     2
29.6874     0
29.6999     3
29.7124     1
29.7249     0
29.7374     5
29.7499     2
29.7624     2
29.7749     3
29.7874     2
29.7999     1
29.8124     3
29.8249     4
29.8374     1
29.8499     0
29.8625     3
 29.875     3
29.8875     3
   29.9     5
29.9125     3
 29.925     2
29.9375     3
  29.95     1
29.9625     0
 29.975     0
29.9875     2
     30     3
30.0125     3
 30.025     1
30.0376     3
30.0501     6
30.0626     0
30.0751     2
30.0876     2
30.1001     3
30.1126     3
30.1251     3
30.1376     5
30.1501     0
30.1626     2
30.1751     0
30.1876     1
30.2002     1
30.2127     0
30.2252     1
30.2377     3
30.2502     2
30.2627     3
30.2752     1
30.2877     0
30.3002     4
30.3127     3
30.3252     6
30.3377     2
30.3502     0
30.3627     1
30.3753     6
30.3878     1
30.4003     1
30.4128     2
30.4253     2
30.4378     3
30.4503     0
30.4628     2
30.4753     4
30.4878     2
30.5003     2
30.5128     1
30.5253     0
30.5378     4
30.5504     2
30.5629     0
30.5754     1
30.5879     0
30.6004     1
30.6129     1
30.6254     2
30.6379     0
30.6504     2
30.6629     1
30.6754     3
30.6879     0
30.7004     2
30.7129     3
30.7255     5
 30.738     2
30.7505     2
 30.763     3
30.7755     4
 30.788     2
30.8005     0
 30.813     4
30.8255     0
 30.838     1
30.8505     3
 30.863     0
30.8755     3
30.8881     3
30.9006     2
30.9131     3
30.9256     2
30.9381     1
30.9506     5
30.9631     2
30.9756     2
30.9881     0
31.0006     2
31.0131     4
31.0256     1
31.0381     2
31.0506     1
31.0632     3
31.0757     2
31.0882     4
31.1007     1
31.1132     1
31.1257     4
31.1382     0
31.1507     0
31.1632     3
31.1757     2
31.1882     3
31.2007     3
31.2132     1
31.2257     0
31.2383     1
31.2508     1
31.2633     1
31.2758     3
31.2883     3
31.3008     1
31.3133     1
31.3258     1
31.3383     1
31.3508     0
31.3633     2
31.3758     0
31.3883     4
31.4008     1
31.4134     1
31.4259     1
31.4384     2
31.4509     0
31.4634     1
31.4759     1
31.4884     1
31.5009     2
31.5134     3
31.5259     3
31.5384     1
31.5509     3
31.5634     0
 31.576     3
31.5885     0
 31.601     5
31.6135     1
 31.626     2
31.6385     1
 31.651     3
31.6635     1
 31.676     4
31.6885     2
 31.701     0
31.7135     0
 31.726     1
31.7385     0
31.7511     1
31.7636     2
31.7761     2
31.7886     0
31.8011     2
31.8136     0
31.8261     2
31.8386     1
31.8511     0
31.8636     2
31.8761     1
31.8886     0
31.9011     1
31.9136     2
31.9262     2
31.9387     2
31.9512     1
31.9637     2
31.9762     1
31.9887     3
32.0012     1
32.0137     2
32.0262     2
32.0387     1
32.0512     1
32.0637     1
32.0762     1
32.0887     0
32.1013     0
32.1138     1
32.1263     1
32.1388     0
32.1513     3
32.1638     3
32.1763     3
32.1888     0
32.2013     0
32.2138     2
32.2263     3
32.2388     3
32.2513     0
32.2639     3
32.2764     2
32.2889     1
32.3014     2
32.3139     1
32.3264     3
32.3389     0
32.3514     1
32.3639     0
32.3764     0
32.3889     3
32.4014     1
32.4139     0
32.4264     2
 32.439     0
32.4515     1
 32.464     0
32.4765     0
 32.489     0
32.5015     2
 32.514     1
32.5265     2
 32.539     3
32.5515     1
 32.564     2
32.5765     1
 32.589     1
32.6015     1
32.6141     2
32.6266     1
32.6391     2
32.6516     1
32.6641     5
32.6766     1
32.6891     0
32.7016     2
32.7141     0
32.7266     1
32.7391     0
32.7516     1
32.7641     0
32.7766     2
32.7892     2
32.8017     1
32.8142     1
32.8267     1
32.8392     1
32.8517     3
32.8642     2
32.8767     2
32.8892     0
32.9017     0
32.9142     1
32.9267     1
32.9392     2
32.9518     2
32.9643     1
32.9768     1
32.9893     1
33.0018     1
33.0143     0
33.0268     0
33.0393     1
33.0518     2
33.0643     5
33.0768     2
33.0893     1
33.1018     0
33.1143     2
33.1269     0
33.1394     0
33.1519     3
33.1644     1
33.1769     1
33.1894     0
33.2019     2
33.2144     0
33.2269     2
33.2394     2
33.2519     2
33.2644     3
33.2769     1
33.2894     0
 33.302     3
33.3145     2
 33.327     3
33.3395     0
 33.352     3
33.3645     3
 33.377     2
33.3895     3
 33.402     1
33.4145     1
 33.427     0
33.4395     3
 33.452     1
33.4645     2
33.4771     2
33.4896     0
33.5021     4
33.5146     0
33.5271     0
33.5396     2
33.5521     1
33.5646     1
33.5771     2
33.5896     1
33.6021     1
33.6146     1
33.6271     0
33.6397     0
33.6522     0
33.6647     0
33.6772     1
33.6897     1
33.7022     1
33.7147     2
33.7272     1
33.7397     1
33.7522     1
33.7647     1
33.7772     0
33.7897     0
33.8022     6
33.8148     0
33.8273     0
33.8398     0
33.8523     1
33.8648     0
33.8773     2
33.8898     2
33.9023     0
33.9148     1
33.9273     1
33.9398     0
33.9523     3
33.9648     2
33.9773     3
33.9899     2
34.0024     2
34.0149     1
34.0274     2
34.0399     3
34.0524     0
34.0649     2
34.0774     0
34.0899     1
34.1024     0
34.1149     1
34.1274     2
34.1399     0
34.1524     1
 34.165     0
34.1775     1
  34.19     0
34.2025     0
 34.215     0
34.2275     1
  34.24     1
34.2525     1
 34.265     2
34.2775     1
  34.29     2
34.3025     0
 34.315     0
34.3276     0
34.3401     1
34.3526     2
34.3651     1
34.3776     0
34.3901     0
34.4026     3
34.4151     0
34.4276     0
34.4401     0
34.4526     2
34.4651     1
34.4776     0
34.4901     1
34.5027     1
34.5152     0
34.5277     0
34.5402     1
34.5527     1
34.5652     0
34.5777     1
34.5902     1
34.6027     1
34.6152     1
34.6277     1
34.6402     1
34.6527     0
34.6652     2
34.6778     0
34.6903     3
34.7028     0
34.7153     0
34.7278     1
34.7403     3
34.7528     0
34.7653     1
34.7778     2
34.7903     0
34.8028     1
34.8153     0
34.8278     0
34.8403     1
34.8529     0
34.8654     1
34.8779     0
34.8904     0
34.9029     0
34.9154     1
34.9279     0
34.9404     0
34.9529     0
34.9654     1
34.9779     3
34.9904     2
35.0029     0
35.0155     1
 35.028     1
35.0405     0
 35.053     1
35.0655     1
 35.078     0
35.0905     3
 35.103     0
35.1155     0
 35.128     2
35.1405     0
 35.153     1
35.1655     0
 35.178     0
35.1906     2
35.2031     1
35.2156     0
35.2281     2
35.2406     1
35.2531     0
35.2656     0
35.2781     1
35.2906     1
35.3031     0
35.3156     0
35.3281     2
35.3406     2
35.3531     1
35.3657     1
35.3782     0
35.3907     0
35.4032     0
35.4157     0
35.4282     2
35.4407     3
35.4532     0
35.4657     3
35.4782     1
35.4907     1
35.5032     0
35.5157     1
35.5282     1
35.5408     0
35.5533     0
35.5658     1
35.5783     3
35.5908     1
35.6033     1
35.6158     1
35.6283     0
35.6408     1
35.6533     0
35.6658     0
35.6783     1
35.6908     1
35.7034     0
35.7159     0
35.7284     2
35.7409     0
35.7534     0
35.7659     2
35.7784     1
35.7909     1
35.8034     0
35.8159     2
35.8284     1
35.8409     0
35.8534     1
35.8659     1
35.8785     0
 35.891     2
35.9035     1
 35.916     2
35.9285     0
 35.941     0
35.9535     2
 35.966     1
35.9785     1
 35.991     2
36.0035     1
 36.016     0
36.0285     0
 36.041     0
36.0536     0
36.0661     0
36.0786     0
36.0911     0
36.1036     0
36.1161     0
36.1286     0
36.1411     0
36.1536     2
36.1661     1
36.1786     0
36.1911     1
36.2036     0
36.2161     0
36.2287     0
36.2412     1
36.2537     1
36.2662     0
36.2787     2
36.2912     0
36.3037     2
36.3162     0
36.3287     1
36.3412     0
36.3537     1
36.3662     0
36.3787     0
36.3913     1
36.4038     2
36.4163     2
36.4288     0
36.4413     0
36.4538     1
36.4663     0
36.4788     2
36.4913     1
36.5038     0
36.5163     2
36.5288     0
36.5413     0
36.5538     0
36.5664     1
36.5789     0
36.5914     0
36.6039     0
36.6164     0
36.6289     1
36.6414     0
36.6539     0
36.6664     2
36.6789     1
36.6914     1
36.7039     1
36.7164     2
36.7289     0
36.7415     1
 36.754     0
36.7665     0
 36.779     0
36.7915     1
 36.804     1
36.8165     1
 36.829     1
36.8415     0
 36.854     0
36.8665     0
 36.879     2
36.8915     0
 36.904     0
36.9166     1
36.9291     0
36.9416     0
36.9541     0
36.9666     0
36.9791     1
36.9916     1
37.0041     1
37.0166     0
37.0291     0
37.0416     1
37.0541     0
37.0666     0
37.0792     0
37.0917     0
37.1042     1
37.1167     2
37.1292     0
37.1417     0
37.1542     0
37.1667     1
37.1792     1
37.1917     0
37.2042     2
37.2167     0
37.2292     1
37.2417     0
37.2543     0
37.2668     0
37.2793     1
37.2918     0
37.3043     1
37.3168     0
37.3293     0
37.3418     1
37.3543     2
37.3668     1
37.3793     0
37.3918     2
37.4043     2
37.4168     0
37.4294     0
37.4419     0
37.4544     0
37.4669     0
37.4794     1
37.4919     0
37.5044     1
37.5169     0
37.5294     0
37.5419     0
37.5544     0
37.5669     1
37.5794     1
37.5919     0
37.6045     2
 37.617     0
37.6295     0
 37.642     1
37.6545     0
 37.667     1
37.6795     0
 37.692     0
37.7045     0
 37.717     1
37.7295     1
 37.742     0
37.7545     0
37.7671     1
37.7796     0
37.7921     0
37.8046     1
37.8171     1
37.8296     0
37.8421     0
37.8546     0
37.8671     0
37.8796     1
37.8921     0
37.9046     1
37.9171     0
37.9296     0
37.9422     1
37.9547     0
37.9672     0
37.9797     1
37.9922     0
38.0047     1
38.0172     0
38.0297     0
38.0422     1
38.0547     1
38.0672     0
38.0797     1
38.0922     0
38.1047     0
38.1173     1
38.1298     0
38.1423     0
38.1548     1
38.1673     1
38.1798     1
38.1923     0
38.2048     0
38.2173     0
38.2298     1
38.2423     0
38.2548     1
38.2673     0
38.2798     0
38.2924     0
38.3049     0
38.3174     0
38.3299     0
38.3424     1
38.3549     0
38.3674     0
38.3799     0
38.3924     0
38.4049     0
38.4174     0
38.4299     0
38.4424     0
 38.455     0
38.4675     1
  38.48     0
38.4925     0
 38.505     0
38.5175     0
  38.53     0
38.5425     0
 38.555     0
38.5675     1
  38.58     0
38.5925     0
 38.605     1
38.6175     0
38.6301     1
38.6426     0
38.6551     0
38.6676     0
38.6801     1
38.6926     0
38.7051     0
38.7176     0
38.7301     0
38.7426     0
38.7551     0
38.7676     0
38.7801     0
38.7926     0
38.8052     0
38.8177     1
38.8302     0
38.8427     2
38.8552     0
38.8677     0
38.8802     2
38.8927     0
38.9052     0
38.9177     1
38.9302     0
38.9427     0
38.9552     0
38.9677     0
38.9803     1
38.9928     0
39.0053     0
39.0178     1
39.0303     0
39.0428     1
39.0553     0
39.0678     2
39.0803     1
39.0928     0
39.1053     0
39.1178     0
39.1303     1
39.1429     1
39.1554     1
39.1679     0
39.1804     0
39.1929     0
39.2054     0
39.2179     1
39.2304     0
39.2429     1
39.2554     0
39.2679     0
39.2804     0
39.2929     1
39.3054     0
 39.318     0
39.3305     0
 39.343     0
39.3555     0
 39.368     1
39.3805     1
 39.393     0
39.4055     0
 39.418     1
39.4305     1
 39.443     0
39.4555     0
 39.468     1
39.4805     0
39.4931     1
39.5056     0
39.5181     0
39.5306     0
39.5431     0
39.5556     1
39.5681     0
39.5806     0
39.5931     0
39.6056     0
39.6181     0
39.6306     0
39.6431     0
39.6556     0
39.6682     0
39.6807     0
39.6932     0
39.7057     0
39.7182     0
39.7307     0
39.7432     0
39.7557     0
39.7682     0
39.7807     0
39.7932     0
39.8057     0
39.8182     0
39.8308     0
39.8433     1
39.8558     0
39.8683     0
39.8808     0
39.8933     2
39.9058     0
39.9183     1
39.9308     0
39.9433     0
39.9558     1
39.9683     0
39.9808     0
39.9933     1
40.0059     0
40.0184     0
40.0309     1
40.0434     0
40.0559     0
40.0684     0
40.0809     0
40.0934     1
40.1059     1
40.1184     0
40.1309     0
40.1434     0
40.1559     0
40.1684     0
 40.181     0
40.1935     1
 40.206     1
40.2185     0
 40.231     2
40.2435     0
 40.256     0
40.2685     0
 40.281     0
40.2935     0
 40.306     0
40.3185     0
 40.331     0
40.3435     0
40.3561     0
40.3686     0
40.3811     0
40.3936     1
40.4061     0
40.4186     0
40.4311     1
40.4436     0
40.4561     1
40.4686     0
40.4811     1
40.4936     0
40.5061     0
40.5187     0
40.5312     0
40.5437     0
40.5562     0
40.5687     0
40.5812     0
40.5937     0
40.6062     0
40.6187     0
40.6312     0
40.6437     0
40.6562     0
40.6687     0
40.6812     1
40.6938     0
40.7063     0
40.7188     0
40.7313     1
40.7438     0
40.7563     0
40.7688     2
40.7813     0
40.7938     0
40.8063     0
40.8188     0
40.8313     0
40.8438     0
40.8563     0
40.8689     0
40.8814     1
40.8939     0
40.9064     0
40.9189     1
40.9314     0
40.9439     0
40.9564     0
40.9689     0
40.9814     1
40.9939     0
41.0064     0
41.0189     0
41.0314     0
 41.044     0
41.0565     0
 41.069     0
41.0815     0
 41.094     0
41.1065     0
 41.119     0
41.1315     0
 41.144     0
41.1565     0
 41.169     0
41.1815     0
 41.194     0
41.2066     0
41.2191     0
41.2316     0
41.2441     0
41.2566     0
41.2691     0
41.2816     0
41.2941     0
41.3066     0
41.3191     0
41.3316     0
41.3441     0
41.3566     0
41.3691     0
41.3817     0
41.3942     0
41.4067     0
41.4192     0
41.4317     0
41.4442     0
41.4567     0
41.4692     0
41.4817     0
41.4942     0
41.5067     0
41.5192     0
41.5317     0
41.5442     0
41.5568     0
41.5693     0
41.5818     0
41.5943     0
41.6068     1
41.6193     0
41.6318     0
41.6443     0
41.6568     0
41.6693     0
41.6818     0
41.6943     0
41.7068     0
41.7193     0
41.7319     0
41.7444     0
41.7569     0
41.7694     0
41.7819     0
41.7944     0
41.8069     0
41.8194     0
41.8319     0
41.8444     0
41.8569     0
41.8694     0
41.8819     0
41.8945     0
 41.907     0
41.9195     0
 41.932     0
41.9445     0
 41.957     0
41.9695     0
 41.982     0
41.9945     0
 42.007     0
42.0195     0
 42.032     0
42.0445     1
 42.057     0
42.0696     0
42.0821     0
42.0946     0
42.1071     0
42.1196     0
42.1321     0
42.1446     0
42.1571     0
42.1696     0
42.1821     0
42.1946     0
42.2071     0
42.2196     0
42.2321     0
42.2447     0
42.2572     0
42.2697     0
42.2822     0
42.2947     0
42.3072     0
42.3197     0
42.3322     0
42.3447     0
42.3572     0
42.3697     1
42.3822     0
42.3947     0
42.4072     0
42.4198     0
42.4323     0
42.4448     0
42.4573     0
42.4698     0
42.4823     0
42.4948     0
42.5073     0
42.5198     0
42.5323     0
42.5448     0
42.5573     0
42.5698     0
42.5824     0
42.5949     0
42.6074     0
42.6199     0
42.6324     0
42.6449     0
42.6574     0
42.6699     0
42.6824     0
42.6949     0
42.7074     0
42.7199     0
42.7324     0
42.7449     0
42.7575     0
  42.77     0
42.7825     0
 42.795     0
42.8075     0
  42.82     0
42.8325     0
 42.845     0
42.8575     0
  42.87     0
42.8825     0
 42.895     0
42.9075     0
  42.92     0
42.9326     0
42.9451     0
42.9576     0
42.9701     0
42.9826     0
42.9951     0
43.0076     0
43.0201     0
43.0326     1
43.0451     0
43.0576     0
43.0701     0
43.0826     0
43.0951     0
43.1077     0
43.1202     0
43.1327     0
43.1452     0
43.1577     0
43.1702     0
43.1827     0
43.1952     0
43.2077     0
43.2202     0
43.2327     0
43.2452     0
43.2577     0
43.2703     0
43.2828     0
43.2953     0
43.3078     0
43.3203     0
43.3328     0
43.3453     0
43.3578     0
43.3703     0
43.3828     0
43.3953     0
43.4078     0
43.4203     0
43.4328     0
43.4454     0
43.4579     0
43.4704     0
43.4829     0
43.4954     0
43.5079     0
43.5204     0
43.5329     0
43.5454     0
43.5579     0
43.5704     0
43.5829     0
43.5954     0
43.6079     0
43.6205     0
 43.633     0
43.6455     0
 43.658     0
43.6705     0
 43.683     0
43.6955     0
 43.708     0
43.7205     0
 43.733     0
43.7455     0
 43.758     0
43.7705     0
 43.783     0
43.7956     0
43.8081     1
43.8206     0
43.8331     0
43.8456     0
43.8581     0
43.8706     0
43.8831     0
43.8956     0
43.9081     0
43.9206     0
43.9331     0
43.9456     0
43.9582     0
43.9707     0
43.9832     0
43.9957     0
44.0082     0
44.0207     0
44.0332     0
44.0457     0
44.0582     0
44.0707     0
44.0832     0
44.0957     0
44.1082     0
44.1207     0
44.1333     0
44.1458     0
44.1583     0
44.1708     0
44.1833     0
44.1958     0
44.2083     0
44.2208     0
44.2333     0
44.2458     0
44.2583     0
44.2708     0
44.2833     0
44.2958     0
44.3084     0
44.3209     0
44.3334     0
44.3459     0
44.3584     0
44.3709     0
44.3834     0
44.3959     0
44.4084     0
44.4209     1
44.4334     0
44.4459     0
44.4584     0
44.4709     0
44.4835     0
 44.496     0
44.5085     0
 44.521     0
44.5335     0
 44.546     0
44.5585     0
 44.571     0
44.5835     0
 44.596     0
44.6085     0
 44.621     0
44.6335     0
44.6461     0
44.6586     0
44.6711     0
44.6836     0
44.6961     0
44.7086     0
44.7211     0
44.7336     0
44.7461     0
44.7586     0
44.7711     0
44.7836     0
44.7961     0
44.8086     0
44.8212     0
44.8337     0
44.8462     0
44.8587     0
44.8712     0
44.8837     0
44.8962     0
44.9087     0
44.9212     0
44.9337     0
44.9462     0
44.9587     0
44.9712     0
44.9837     0
44.9963     0
45.0088     0
45.0213     0
45.0338     0
45.0463     0
45.0588     0
45.0713     0
45.0838     0
45.0963     0
45.1088     0
45.1213     0
45.1338     0
45.1463     0
45.1588     0
45.1714     0
45.1839     0
45.1964     0
45.2089     0
45.2214     0
45.2339     0
45.2464     0
45.2589     0
45.2714     0
45.2839     0
45.2964     0
45.3089     1
45.3214     0
 45.334     0
45.3465     0
 45.359     0
45.3715     0
 45.384     0
45.3965     0
 45.409     0
45.4215     0
 45.434     0
45.4465     0
 45.459     0
45.4715     0
 45.484     0
45.4965     0
45.5091     0
45.5216     0
45.5341     0
45.5466     0
45.5591     0
45.5716     0
45.5841     0
45.5966     0
45.6091     0
45.6216     0
45.6341     0
45.6466     0
45.6591     0
45.6716     0
45.6842     0
45.6967     0
45.7092     0
45.7217     0
45.7342     0
45.7467     0
45.7592     0
45.7717     0
45.7842     0
45.7967     0
45.8092     0
45.8217     0
45.8342     0
45.8467     0
45.8593     0
45.8718     0
45.8843     0
45.8968     0
45.9093     0
45.9218     0
45.9343     0
45.9468     0
45.9593     0
45.9718     0
45.9843     0
45.9968     0
46.0093     0
46.0219     0
46.0344     0
46.0469     0
46.0594     0
46.0719     0
46.0844     0
46.0969     0
46.1094     0
46.1219     0
46.1344     0
46.1469     0
46.1594     0
46.1719     0
46.1844     0
 46.197     0
46.2095     0
 46.222     0
46.2345     0
 46.247     0
46.2595     0
 46.272     0
46.2845     0
 46.297     0
46.3095     0
 46.322     0
46.3345     0
 46.347     0
46.3595     0
46.3721     0
46.3846     0
46.3971     0
46.4096     0
46.4221     0
46.4346     0
46.4471     0
46.4596     0
46.4721     0
46.4846     0
46.4971     0
46.5096     0
46.5221     0
46.5346     0
46.5472     0
46.5597     0
46.5722     0
46.5847     0
46.5972     0
46.6097     0
46.6222     0
46.6347     0
46.6472     0
46.6597     0
46.6722     0
46.6847     0
46.6972     0
46.7098     0
46.7223     0
46.7348     0
46.7473     0
46.7598     0
46.7723     0
46.7848     0
46.7973     0
46.8098     0
46.8223     0
46.8348     0
46.8473     0
46.8598     0
46.8723     0
46.8849     0
46.8974     0
46.9099     0
46.9224     0
46.9349     0
46.9474     0
46.9599     0
46.9724     0
46.9849     0
46.9974     0
47.0099     0
47.0224     0
47.0349     0
47.0474     0
  47.06     0
47.0725     0
 47.085     0
47.0975     0
  47.11     0
47.1225     0
 47.135     0
47.1475     0
  47.16     0
47.1725     0
 47.185     0
47.1975     0
  47.21     0
47.2225     0
47.2351     0
47.2476     0
47.2601     0
47.2726     0
47.2851     0
47.2976     0
47.3101     0
47.3226     0
47.3351     0
47.3476     0
47.3601     0
47.3726     0
47.3851     0
47.3977     0
47.4102     0
47.4227     0
47.4352     0
47.4477     0
47.4602     0
47.4727     0
47.4852     0
47.4977     0
47.5102     0
47.5227     0
47.5352     0
47.5477     0
47.5602     0
47.5728     0
47.5853     0
47.5978     0
47.6103     0
47.6228     0
47.6353     0
47.6478     0
47.6603     0
47.6728     0
47.6853     0
47.6978     0
47.7103     0
47.7228     0
47.7353     0
47.7479     0
47.7604     0
47.7729     0
47.7854     0
47.7979     0
47.8104     0
47.8229     0
47.8354     0
47.8479     0
47.8604     0
47.8729     0
47.8854     0
47.8979     0
47.9104     0
 47.923     0
47.9355     0
 47.948     0
47.9605     0
 47.973     1
47.9855     0
 47.998     0
48.0105     0
 48.023     0
48.0355     0
 48.048     0
48.0605     0
 48.073     0
48.0856     0
48.0981     0
48.1106     0
48.1231     0
48.1356     0
48.1481     0
48.1606     0
48.1731     0
48.1856     0
48.1981     0
48.2106     0
48.2231     0
48.2356     0
48.2481     0
48.2607     0
48.2732     0
48.2857     0
48.2982     0
48.3107     0
48.3232     0
48.3357     0
48.3482     0
48.3607     0
48.3732     0
48.3857     0
48.3982     0
48.4107     0
48.4232     0
48.4358     0
48.4483     0
48.4608     0
48.4733     0
48.4858     0
48.4983     0
48.5108     0
48.5233     0
48.5358     0
48.5483     0
48.5608     0
48.5733     0
48.5858     0
48.5983     0
48.6109     0
48.6234     0
48.6359     0
48.6484     0
48.6609     0
48.6734     0
48.6859     0
48.6984     0
48.7109     0
48.7234     0
48.7359     0
48.7484     0
48.7609     0
48.7735     0
 48.786     0
48.7985     0
 48.811     0
48.8235     0
 48.836     0
48.8485     0
 48.861     0
48.8735     0
 48.886     0
48.8985     0
 48.911     0
48.9235     0
 48.936     0
48.9486     0
48.9611     0
48.9736     0
48.9861     0
48.9986     0
49.0111     0
49.0236     0
49.0361     0
49.0486     0
49.0611     0
49.0736     0
49.0861     0
49.0986     0
49.1111     0
49.1237     0
49.1362     0
49.1487     0
49.1612     0
49.1737     0
49.1862     0
49.1987     0
49.2112     0
49.2237     0
49.2362     0
49.2487     0
49.2612     0
49.2737     0
49.2862     0
49.2988     0
49.3113     0
49.3238     0
49.3363     0
49.3488     0
49.3613     0
49.3738     0
49.3863     0
49.3988     0
49.4113     0
49.4238     0
49.4363     0
49.4488     0
49.4614     0
49.4739     0
49.4864     0
49.4989     0
49.5114     0
49.5239     0
49.5364     0
49.5489     0
49.5614     0
49.5739     0
49.5864     0
49.5989     0
49.6114     0
49.6239     0
49.6365     0
 49.649     0
49.6615     0
 49.674     0
49.6865     0
 49.699     0
49.7115     0
 49.724     1
49.7365     0
 49.749     0
49.7615     0
 49.774     0
49.7865     0
 49.799     0
49.8116     0
49.8241     0
49.8366     0
49.8491     0
49.8616     0
49.8741     0
49.8866     0
49.8991     0
49.9116     0
49.9241     0
49.9366     0
49.9491     0
49.9616     0
49.9741     0
49.9867     0
49.9992     0
50.0117     0
50.0242     0
