RÖNTEC GmbH Berlin, Germany
Quantax 1.2

Date: 3/3/2015 12:45:29 PM
Real time: 61055
Life time: 60004
Pulse density: 7576


Detector type: XFLASH 3001
Window type: 
Detector thickness: 0.45
Si dead layer:0

Calibration, lin.: 12.507
Calibration, abs.: -1193.107
Mn FWHM: 142.37
Fano factor: 0.105
Channels: 4096

Energy Counts
-1.1931     0
-1.1806     0
-1.1681     0
-1.1556     0
-1.1431     0
-1.1306     0
-1.1181     0
-1.1056     0
 -1.093     0
-1.0805     0
 -1.068     0
-1.0555     0
 -1.043     0
-1.0305     0
 -1.018     0
-1.0055     0
 -0.993     0
-0.9805     0
 -0.968     0
-0.9555     0
 -0.943     0
-0.9305     0
-0.9179     0
-0.9054     0
-0.8929     0
-0.8804     0
-0.8679     0
-0.8554     0
-0.8429     0
-0.8304     0
-0.8179     0
-0.8054     0
-0.7929     0
-0.7804     0
-0.7679     0
-0.7554     0
-0.7428     0
-0.7303     0
-0.7178     0
-0.7053     0
-0.6928     0
-0.6803     0
-0.6678     0
-0.6553     0
-0.6428     0
-0.6303     0
-0.6178     0
-0.6053     0
-0.5928     0
-0.5803     0
-0.5677     0
-0.5552     0
-0.5427     0
-0.5302     0
-0.5177     0
-0.5052     0
-0.4927     0
-0.4802     0
-0.4677     0
-0.4552     0
-0.4427     0
-0.4302     0
-0.4177     0
-0.4051     0
-0.3926     0
-0.3801     0
-0.3676     0
-0.3551     0
-0.3426     0
-0.3301     0
-0.3176     0
-0.3051     0
-0.2926     0
-0.2801     0
-0.2676     0
-0.2551     0
-0.2426     0
  -0.23     0
-0.2175     0
 -0.205     0
-0.1925     0
  -0.18     0
-0.1675     1
 -0.155     0
-0.1425     4
  -0.13    11
-0.1175    69
 -0.105   279
-0.0925   873
  -0.08  2494
-0.0675  6171
-0.0549 13431
-0.0424 25815
-0.0299 43290
-0.0174 61688
-0.0049 78791
 0.0076 87217
 0.0201 84393
 0.0326 71756
 0.0451 52908
 0.0576 34261
 0.0701 19370
 0.0826  9557
 0.0951  4042
 0.1076  1529
 0.1202   502
 0.1327   140
 0.1452    39
 0.1577    11
 0.1702     4
 0.1827     1
 0.1952     0
 0.2077     1
 0.2202     2
 0.2327     0
 0.2452     1
 0.2577     0
 0.2702     1
 0.2828     2
 0.2953     1
 0.3078     0
 0.3203     1
 0.3328     0
 0.3453     0
 0.3578     0
 0.3703     0
 0.3828     0
 0.3953     0
 0.4078     0
 0.4203     1
 0.4328     9
 0.4453    13
 0.4579    33
 0.4704    37
 0.4829    54
 0.4954    61
 0.5079    51
 0.5204    41
 0.5329    55
 0.5454    64
 0.5579    59
 0.5704    64
 0.5829    47
 0.5954    51
 0.6079    53
 0.6204    53
  0.633    43
 0.6455    43
  0.658    43
 0.6705    43
  0.683    44
 0.6955    52
  0.708    54
 0.7205    58
  0.733    34
 0.7455    45
  0.758    36
 0.7705    41
  0.783    29
 0.7955    33
 0.8081    40
 0.8206    35
 0.8331    34
 0.8456    30
 0.8581    21
 0.8706    31
 0.8831    30
 0.8956    31
 0.9081    32
 0.9206    34
 0.9331    30
 0.9456    27
 0.9581    26
 0.9707    26
 0.9832    26
 0.9957    23
 1.0082    24
 1.0207    23
 1.0332    28
 1.0457    26
 1.0582    21
 1.0707    26
 1.0832    29
 1.0957    25
 1.1082    28
 1.1207    20
 1.1332    20
 1.1458    28
 1.1583    25
 1.1708    30
 1.1833    27
 1.1958    20
 1.2083    20
 1.2208    27
 1.2333    28
 1.2458    26
 1.2583    20
 1.2708    19
 1.2833    17
 1.2958    22
 1.3083    20
 1.3209    26
 1.3334    21
 1.3459    29
 1.3584    22
 1.3709    19
 1.3834    19
 1.3959    30
 1.4084    30
 1.4209    25
 1.4334    20
 1.4459    24
 1.4584    21
 1.4709    26
 1.4834    16
  1.496    22
 1.5085    19
  1.521    24
 1.5335    26
  1.546    26
 1.5585    22
  1.571    19
 1.5835    31
  1.596    34
 1.6085    17
  1.621    30
 1.6335    22
  1.646    24
 1.6586    26
 1.6711    15
 1.6836    18
 1.6961    37
 1.7086    26
 1.7211    30
 1.7336    27
 1.7461    29
 1.7586    34
 1.7711    24
 1.7836    40
 1.7961    40
 1.8086    39
 1.8211    36
 1.8337    27
 1.8462    36
 1.8587    45
 1.8712    29
 1.8837    31
 1.8962    28
 1.9087    40
 1.9212    27
 1.9337    31
 1.9462    25
 1.9587    26
 1.9712    25
 1.9837    27
 1.9962    31
 2.0088    20
 2.0213    22
 2.0338    33
 2.0463    15
 2.0588    28
 2.0713    25
 2.0838    18
 2.0963    25
 2.1088    27
 2.1213    31
 2.1338    30
 2.1463    30
 2.1588    36
 2.1713    54
 2.1839    47
 2.1964    32
 2.2089    41
 2.2214    49
 2.2339    50
 2.2464    71
 2.2589    80
 2.2714   131
 2.2839   185
 2.2964   231
 2.3089   334
 2.3214   459
 2.3339   502
 2.3465   613
  2.359   677
 2.3715   678
  2.384   669
 2.3965   691
  2.409   683
 2.4215   652
  2.434   598
 2.4465   602
  2.459   583
 2.4715   536
  2.484   453
 2.4965   428
  2.509   316
 2.5216   257
 2.5341   202
 2.5466   120
 2.5591   110
 2.5716    72
 2.5841    77
 2.5966    67
 2.6091    62
 2.6216    59
 2.6341    58
 2.6466    72
 2.6591    70
 2.6716    67
 2.6841    72
 2.6967    75
 2.7092    49
 2.7217    47
 2.7342    38
 2.7467    32
 2.7592    39
 2.7717    29
 2.7842    27
 2.7967    22
 2.8092    26
 2.8217    18
 2.8342    19
 2.8467    17
 2.8592    22
 2.8718    25
 2.8843    24
 2.8968    33
 2.9093    37
 2.9218    36
 2.9343    37
 2.9468    26
 2.9593    49
 2.9718    42
 2.9843    62
 2.9968    38
 3.0093    45
 3.0218    45
 3.0344    41
 3.0469    48
 3.0594    39
 3.0719    42
 3.0844    44
 3.0969    48
 3.1094    59
 3.1219    50
 3.1344    53
 3.1469    49
 3.1594    34
 3.1719    44
 3.1844    47
 3.1969    40
 3.2095    49
  3.222    37
 3.2345    37
  3.247    37
 3.2595    48
  3.272    46
 3.2845    41
  3.297    57
 3.3095    51
  3.322    49
 3.3345    57
  3.347    42
 3.3595    50
  3.372    44
 3.3846    34
 3.3971    44
 3.4096    31
 3.4221    26
 3.4346    33
 3.4471    23
 3.4596    23
 3.4721    20
 3.4846    23
 3.4971    18
 3.5096    20
 3.5221    31
 3.5346    29
 3.5471    23
 3.5597    28
 3.5722    32
 3.5847    38
 3.5972    61
 3.6097    85
 3.6222    89
 3.6347   113
 3.6472   138
 3.6597   158
 3.6722   171
 3.6847   190
 3.6972   219
 3.7097   240
 3.7223   184
 3.7348   194
 3.7473   161
 3.7598   107
 3.7723   109
 3.7848    80
 3.7973    69
 3.8098    49
 3.8223    32
 3.8348    21
 3.8473    24
 3.8598    23
 3.8723    24
 3.8848    26
 3.8974    23
 3.9099    20
 3.9224    24
 3.9349    16
 3.9474    30
 3.9599    42
 3.9724    27
 3.9849    40
 3.9974    59
 4.0099    38
 4.0224    42
 4.0349    44
 4.0474    37
 4.0599    42
 4.0725    35
  4.085    32
 4.0975    31
   4.11    22
 4.1225    23
  4.135    34
 4.1475    23
   4.16    22
 4.1725    16
  4.185    19
 4.1975    23
   4.21    17
 4.2225    23
  4.235    20
 4.2476    16
 4.2601    17
 4.2726    15
 4.2851    12
 4.2976    24
 4.3101    19
 4.3226    16
 4.3351    22
 4.3476    21
 4.3601    27
 4.3726    21
 4.3851    25
 4.3976    21
 4.4102    24
 4.4227    28
 4.4352    30
 4.4477    37
 4.4602    27
 4.4727    46
 4.4852    49
 4.4977    58
 4.5102    58
 4.5227    57
 4.5352    55
 4.5477    54
 4.5602    49
 4.5727    35
 4.5853    53
 4.5978    47
 4.6103    39
 4.6228    41
 4.6353    35
 4.6478    45
 4.6603    35
 4.6728    32
 4.6853    39
 4.6978    28
 4.7103    37
 4.7228    31
 4.7353    27
 4.7478    30
 4.7604    22
 4.7729    26
 4.7854    30
 4.7979    17
 4.8104    17
 4.8229    25
 4.8354    24
 4.8479    17
 4.8604    28
 4.8729    25
 4.8854    32
 4.8979    24
 4.9104    25
 4.9229    29
 4.9355    26
  4.948    28
 4.9605    33
  4.973    31
 4.9855    28
  4.998    27
 5.0105    21
  5.023    30
 5.0355    21
  5.048    20
 5.0605    19
  5.073    25
 5.0855    33
 5.0981    25
 5.1106    18
 5.1231    19
 5.1356    19
 5.1481    16
 5.1606    27
 5.1731    21
 5.1856    25
 5.1981    23
 5.2106    26
 5.2231    21
 5.2356    17
 5.2481    27
 5.2606    27
 5.2732    32
 5.2857    31
 5.2982    30
 5.3107    31
 5.3232    23
 5.3357    19
 5.3482    25
 5.3607    37
 5.3732    32
 5.3857    42
 5.3982    30
 5.4107    17
 5.4232    18
 5.4357    25
 5.4483    37
 5.4608    26
 5.4733    29
 5.4858    26
 5.4983    35
 5.5108    28
 5.5233    30
 5.5358    33
 5.5483    29
 5.5608    37
 5.5733    33
 5.5858    36
 5.5983    27
 5.6108    32
 5.6234    26
 5.6359    26
 5.6484    30
 5.6609    32
 5.6734    32
 5.6859    39
 5.6984    25
 5.7109    30
 5.7234    33
 5.7359    25
 5.7484    42
 5.7609    35
 5.7734    38
  5.786    34
 5.7985    34
  5.811    30
 5.8235    44
  5.836    28
 5.8485    43
  5.861    38
 5.8735    44
  5.886    49
 5.8985    42
  5.911    51
 5.9235    39
  5.936    35
 5.9485    44
 5.9611    35
 5.9736    39
 5.9861    42
 5.9986    35
 6.0111    49
 6.0236    39
 6.0361    31
 6.0486    39
 6.0611    38
 6.0736    46
 6.0861    36
 6.0986    51
 6.1111    46
 6.1236    62
 6.1362    51
 6.1487    65
 6.1612    57
 6.1737    53
 6.1862    65
 6.1987    90
 6.2112   103
 6.2237   144
 6.2362   193
 6.2487   262
 6.2612   432
 6.2737   620
 6.2862   882
 6.2988  1253
 6.3113  1667
 6.3238  2087
 6.3363  2531
 6.3488  3116
 6.3613  3706
 6.3738  4102
 6.3863  4474
 6.3988  4686
 6.4113  4640
 6.4238  4454
 6.4363  4140
 6.4488  3611
 6.4613  3052
 6.4739  2563
 6.4864  1927
 6.4989  1503
 6.5114  1120
 6.5239   829
 6.5364   565
 6.5489   398
 6.5614   273
 6.5739   160
 6.5864   108
 6.5989    85
 6.6114    67
 6.6239    51
 6.6364    61
  6.649    37
 6.6615    61
  6.674    50
 6.6865    48
  6.699    39
 6.7115    53
  6.724    49
 6.7365    42
  6.749    53
 6.7615    57
  6.774    46
 6.7865    47
  6.799    62
 6.8115    55
 6.8241    62
 6.8366    52
 6.8491    68
 6.8616    68
 6.8741    75
 6.8866    92
 6.8991   116
 6.9116   113
 6.9241   160
 6.9366   192
 6.9491   242
 6.9616   277
 6.9741   367
 6.9867   470
 6.9992   497
 7.0117   605
 7.0242   637
 7.0367   713
 7.0492   760
 7.0617   720
 7.0742   700
 7.0867   690
 7.0992   652
 7.1117   543
 7.1242   484
 7.1367   362
 7.1492   328
 7.1618   226
 7.1743   214
 7.1868   156
 7.1993   123
 7.2118    95
 7.2243    67
 7.2368    60
 7.2493    50
 7.2618    56
 7.2743    60
 7.2868    75
 7.2993    62
 7.3118    48
 7.3243    62
 7.3369    51
 7.3494    83
 7.3619    74
 7.3744    79
 7.3869    88
 7.3994    77
 7.4119    85
 7.4244    76
 7.4369    89
 7.4494    90
 7.4619    94
 7.4744    58
 7.4869    65
 7.4994    64
  7.512    61
 7.5245    62
  7.537    64
 7.5495    50
  7.562    47
 7.5745    51
  7.587    54
 7.5995    47
  7.612    50
 7.6245    50
  7.637    52
 7.6495    48
  7.662    62
 7.6746    59
 7.6871    51
 7.6996    46
 7.7121    49
 7.7246    50
 7.7371    62
 7.7496    51
 7.7621    61
 7.7746    70
 7.7871    63
 7.7996    59
 7.8121    57
 7.8246    58
 7.8371    67
 7.8497    69
 7.8622    54
 7.8747    64
 7.8872    55
 7.8997    73
 7.9122    83
 7.9247    84
 7.9372    97
 7.9497    88
 7.9622   105
 7.9747   117
 7.9872   109
 7.9997   116
 8.0122   138
 8.0248   133
 8.0373   165
 8.0498   158
 8.0623   156
 8.0748   191
 8.0873   162
 8.0998   161
 8.1123   154
 8.1248   183
 8.1373   170
 8.1498   170
 8.1623   142
 8.1748   178
 8.1873   181
 8.1999   197
 8.2124   174
 8.2249   210
 8.2374   241
 8.2499   291
 8.2624   297
 8.2749   364
 8.2874   444
 8.2999   497
 8.3124   617
 8.3249   688
 8.3374   762
 8.3499   858
 8.3625   983
  8.375  1017
 8.3875  1019
    8.4  1023
 8.4125  1012
  8.425   888
 8.4375   852
   8.45   731
 8.4625   649
  8.475   526
 8.4875   443
    8.5   379
 8.5125   279
  8.525   249
 8.5376   182
 8.5501   135
 8.5626   116
 8.5751   114
 8.5876   124
 8.6001   100
 8.6126    77
 8.6251   102
 8.6376    93
 8.6501    84
 8.6626    88
 8.6751    96
 8.6876   105
 8.7001   111
 8.7127   101
 8.7252   101
 8.7377    94
 8.7502    97
 8.7627   105
 8.7752    83
 8.7877    95
 8.8002    92
 8.8127    88
 8.8252    69
 8.8377    85
 8.8502    85
 8.8627    98
 8.8752    81
 8.8878    70
 8.9003   101
 8.9128    84
 8.9253    84
 8.9378    87
 8.9503    96
 8.9628    88
 8.9753    81
 8.9878    79
 9.0003   118
 9.0128   110
 9.0253   115
 9.0378   162
 9.0504   167
 9.0629   194
 9.0754   244
 9.0879   243
 9.1004   304
 9.1129   360
 9.1254   405
 9.1379   415
 9.1504   458
 9.1629   472
 9.1754   531
 9.1879   544
 9.2004   519
 9.2129   490
 9.2255   520
  9.238   438
 9.2505   378
  9.263   431
 9.2755   366
  9.288   307
 9.3005   295
  9.313   285
 9.3255   241
  9.338   211
 9.3505   194
  9.363   189
 9.3755   198
  9.388   223
 9.4006   214
 9.4131   195
 9.4256   199
 9.4381   199
 9.4506   230
 9.4631   246
 9.4756   217
 9.4881   294
 9.5006   309
 9.5131   310
 9.5256   327
 9.5381   371
 9.5506   419
 9.5631   441
 9.5757   458
 9.5882   550
 9.6007   534
 9.6132   600
 9.6257   676
 9.6382   718
 9.6507   738
 9.6632   730
 9.6757   735
 9.6882   739
 9.7007   697
 9.7132   673
 9.7257   606
 9.7383   598
 9.7508   497
 9.7633   479
 9.7758   453
 9.7883   386
 9.8008   377
 9.8133   347
 9.8258   347
 9.8383   294
 9.8508   295
 9.8633   316
 9.8758   326
 9.8883   317
 9.9008   356
 9.9134   353
 9.9259   367
 9.9384   349
 9.9509   366
 9.9634   352
 9.9759   357
 9.9884   332
10.0009   293
10.0134   293
10.0259   236
10.0384   248
10.0509   239
10.0634   191
10.0759   188
10.0885   149
 10.101   161
10.1135   122
 10.126   122
10.1385   104
 10.151   132
10.1635   119
 10.176   130
10.1885   101
 10.201   111
10.2135   127
 10.226   136
10.2385   136
 10.251   145
10.2636   172
10.2761   243
10.2886   232
10.3011   306
10.3136   385
10.3261   497
10.3386   700
10.3511   823
10.3636  1025
10.3761  1348
10.3886  1660
10.4011  2077
10.4136  2576
10.4262  3162
10.4387  3628
10.4512  4453
10.4637  5134
10.4762  5866
10.4887  6353
10.5012  7071
10.5137  7482
10.5262  8093
10.5387  8159
10.5512  8077
10.5637  7639
10.5762  7287
10.5887  6769
10.6013  6179
10.6138  5446
10.6263  4609
10.6388  3885
10.6513  3140
10.6638  2540
10.6763  2014
10.6888  1434
10.7013  1140
10.7138   875
10.7263   645
10.7388   463
10.7513   325
10.7638   240
10.7764   189
10.7889   167
10.8014   129
10.8139   108
10.8264    87
10.8389    92
10.8514    94
10.8639    87
10.8764    99
10.8889    81
10.9014    94
10.9139    81
10.9264    46
10.9389    83
10.9515    66
 10.964    72
10.9765    74
 10.989    62
11.0015    62
 11.014    61
11.0265    69
 11.039    52
11.0515    58
 11.064    47
11.0765    60
 11.089    57
11.1015    67
11.1141    66
11.1266    77
11.1391    72
11.1516    73
11.1641    89
11.1766    80
11.1891   117
11.2016   118
11.2141   146
11.2266   151
11.2391   154
11.2516   191
11.2641   188
11.2766   202
11.2892   234
11.3017   198
11.3142   212
11.3267   224
11.3392   245
11.3517   233
11.3642   197
11.3767   190
11.3892   180
11.4017   158
11.4142   171
11.4267   142
11.4392   147
11.4517   121
11.4643   113
11.4768   106
11.4893   105
11.5018   112
11.5143    89
11.5268    88
11.5393    77
11.5518    64
11.5643    73
11.5768    75
11.5893    78
11.6018    64
11.6143    84
11.6268    63
11.6394    76
11.6519    72
11.6644    59
11.6769    67
11.6894    59
11.7019    63
11.7144    57
11.7269    51
11.7394    67
11.7519    59
11.7644    69
11.7769    59
11.7894    49
 11.802    69
11.8145    46
 11.827    64
11.8395    68
 11.852    44
11.8645    67
 11.877    51
11.8895    56
 11.902    54
11.9145    68
 11.927    64
11.9395    62
 11.952    83
11.9645    79
11.9771    80
11.9896    78
12.0021   104
12.0146    82
12.0271   114
12.0396   130
12.0521   125
12.0646   155
12.0771   171
12.0896   167
12.1021   183
12.1146   235
12.1271   231
12.1396   216
12.1522   247
12.1647   262
12.1772   301
12.1897   290
12.2022   302
12.2147   372
12.2272   358
12.2397   383
12.2522   426
12.2647   420
12.2772   430
12.2897   440
12.3022   431
12.3147   410
12.3273   413
12.3398   425
12.3523   401
12.3648   443
12.3773   433
12.3898   488
12.4023   514
12.4148   607
12.4273   666
12.4398   935
12.4523  1224
12.4648  1442
12.4773  1867
12.4899  2285
12.5024  2689
12.5149  3177
12.5274  3706
12.5399  4205
12.5524  4702
12.5649  4968
12.5774  5182
12.5899  5619
12.6024  5716
12.6149  5664
12.6274  5445
12.6399  5242
12.6524  4935
 12.665  4461
12.6775  4016
  12.69  3576
12.7025  3122
 12.715  2721
12.7275  2187
  12.74  1878
12.7525  1567
 12.765  1319
12.7775  1134
  12.79   960
12.8025   823
 12.815   688
12.8275   532
12.8401   486
12.8526   457
12.8651   422
12.8776   347
12.8901   343
12.9026   292
12.9151   310
12.9276   302
12.9401   248
12.9526   266
12.9651   249
12.9776   236
12.9901   222
13.0026   279
13.0152   241
13.0277   224
13.0402   206
13.0527   200
13.0652   171
13.0777   174
13.0902   162
13.1027   133
13.1152   109
13.1277   105
13.1402    89
13.1527    97
13.1652    85
13.1778    65
13.1903    60
13.2028    51
13.2153    48
13.2278    36
13.2403    45
13.2528    43
13.2653    48
13.2778    41
13.2903    35
13.3028    46
13.3153    45
13.3278    43
13.3403    42
13.3529    33
13.3654    37
13.3779    34
13.3904    49
13.4029    53
13.4154    32
13.4279    33
13.4404    22
13.4529    36
13.4654    30
13.4779    25
13.4904    28
13.5029    21
13.5154    26
 13.528    22
13.5405    26
 13.553    18
13.5655    18
 13.578    10
13.5905    17
 13.603    18
13.6155    15
 13.628    19
13.6405    20
 13.653    16
13.6655    14
 13.678    23
13.6905    15
13.7031    20
13.7156    16
13.7281    17
13.7406    28
13.7531    29
13.7656    21
13.7781    18
13.7906    17
13.8031    19
13.8156    25
13.8281    21
13.8406    27
13.8531    13
13.8657    13
13.8782    15
13.8907    23
13.9032    22
13.9157    17
13.9282    19
13.9407    19
13.9532    26
13.9657    18
13.9782    19
13.9907    18
14.0032    28
14.0157    13
14.0282    24
14.0408    18
14.0533    17
14.0658    17
14.0783    21
14.0908    26
14.1033    23
14.1158    16
14.1283    27
14.1408    26
14.1533    37
14.1658    31
14.1783    36
14.1908    30
14.2033    45
14.2159    36
14.2284    28
14.2409    40
14.2534    47
14.2659    40
14.2784    50
14.2909    31
14.3034    47
14.3159    51
14.3284    40
14.3409    37
14.3534    30
14.3659    34
14.3784    33
 14.391    37
14.4035    34
 14.416    26
14.4285    32
 14.441    34
14.4535    34
 14.466    32
14.4785    32
 14.491    45
14.5035    50
 14.516    49
14.5285    64
 14.541    69
14.5536    64
14.5661   118
14.5786   130
14.5911   155
14.6036   164
14.6161   225
14.6286   295
14.6411   332
14.6536   360
14.6661   427
14.6786   413
14.6911   523
14.7036   534
14.7161   584
14.7287   632
14.7412   639
14.7537   578
14.7662   569
14.7787   568
14.7912   541
14.8037   505
14.8162   448
14.8287   432
14.8412   362
14.8537   342
14.8662   260
14.8787   214
14.8912   167
14.9038   188
14.9163   128
14.9288   113
14.9413    98
14.9538   114
14.9663   104
14.9788    82
14.9913    85
15.0038   119
15.0163   107
15.0288   123
15.0413   111
15.0538   145
15.0663   137
15.0789   151
15.0914   197
15.1039   176
15.1164   179
15.1289   183
15.1414   184
15.1539   200
15.1664   181
15.1789   177
15.1914   161
15.2039   177
15.2164   149
15.2289   134
15.2415   116
 15.254    97
15.2665   110
 15.279    90
15.2915    76
 15.304    60
15.3165    51
 15.329    49
15.3415    43
 15.354    43
15.3665    38
 15.379    35
15.3915    29
 15.404    31
15.4166    27
15.4291    18
15.4416    15
15.4541    14
15.4666    22
15.4791    18
15.4916    19
15.5041    16
15.5166    15
15.5291    17
15.5416    21
15.5541    16
15.5666    12
15.5791    22
15.5917    17
15.6042    35
15.6167    31
15.6292    28
15.6417    24
15.6542    36
15.6667    55
15.6792    33
15.6917    41
15.7042    52
15.7167    37
15.7292    40
15.7417    51
15.7542    42
15.7668    39
15.7793    49
15.7918    37
15.8043    39
15.8168    35
15.8293    33
15.8418    26
15.8543    20
15.8668    27
15.8793    21
15.8918    28
15.9043    21
15.9168    17
15.9294    22
15.9419    23
15.9544    18
15.9669    14
15.9794    14
15.9919     9
16.0044     9
16.0169     5
16.0294     6
16.0419     8
16.0544    10
16.0669    14
16.0794    17
16.0919    12
16.1045    12
 16.117    10
16.1295    15
 16.142    14
16.1545     5
 16.167     8
16.1795    16
 16.192    15
16.2045    24
 16.217     7
16.2295    10
 16.242    15
16.2545     6
 16.267    12
16.2796    21
16.2921     5
16.3046     8
16.3171    11
16.3296    16
16.3421     8
16.3546    10
16.3671    14
16.3796    12
16.3921     8
16.4046    17
16.4171    11
16.4296     7
16.4421     9
16.4547     9
16.4672    12
16.4797     9
16.4922    11
16.5047    16
16.5172     7
16.5297     9
16.5422    11
16.5547    13
16.5672    17
16.5797    15
16.5922    14
16.6047    15
16.6173    14
16.6298    12
16.6423     8
16.6548    12
16.6673    11
16.6798    17
16.6923    17
16.7048     9
16.7173     8
16.7298    16
16.7423    16
16.7548     6
16.7673    21
16.7798    10
16.7924    16
16.8049    12
16.8174    16
16.8299     8
16.8424     9
16.8549    13
16.8674    12
16.8799    14
16.8924    15
16.9049     9
16.9174    10
16.9299    16
16.9424    14
16.9549    15
16.9675    17
  16.98    14
16.9925    12
 17.005     9
17.0175     8
  17.03     8
17.0425     7
 17.055    14
17.0675    17
  17.08    10
17.0925    12
 17.105     9
17.1175     6
  17.13    12
17.1426    10
17.1551     9
17.1676    17
17.1801    16
17.1926    10
17.2051     6
17.2176     9
17.2301    15
17.2426    10
17.2551    13
17.2676    12
17.2801    14
17.2926    15
17.3052    16
17.3177     9
17.3302    10
17.3427    10
17.3552     8
17.3677    11
17.3802    14
17.3927     9
17.4052    11
17.4177     9
17.4302    11
17.4427    10
17.4552    12
17.4677    20
17.4803    12
17.4928     9
17.5053     8
17.5178    14
17.5303     7
17.5428    10
17.5553    19
17.5678    15
17.5803    11
17.5928     9
17.6053    11
17.6178    11
17.6303    15
17.6428    10
17.6554    15
17.6679    14
17.6804    12
17.6929    14
17.7054     9
17.7179    12
17.7304    19
17.7429    22
17.7554    13
17.7679    11
17.7804     8
17.7929    14
17.8054     6
17.8179    14
17.8305    18
 17.843     6
17.8555     9
 17.868    16
17.8805    10
 17.893    13
17.9055    10
 17.918    14
17.9305    14
 17.943    14
17.9555     6
 17.968    13
17.9805     7
17.9931     8
18.0056     2
18.0181     8
18.0306     9
18.0431     5
18.0556    11
18.0681    17
18.0806    13
18.0931    12
18.1056     8
18.1181     5
18.1306     8
18.1431     9
18.1556    11
18.1682     8
18.1807    13
18.1932     9
18.2057     6
18.2182    10
18.2307    15
18.2432    10
18.2557     6
18.2682    17
18.2807     9
18.2932     6
18.3057     8
18.3182     9
18.3307    11
18.3433     5
18.3558     5
18.3683    12
18.3808     7
18.3933     9
18.4058    11
18.4183    10
18.4308    10
18.4433     6
18.4558     9
18.4683    13
18.4808    12
18.4933    10
18.5058     8
18.5184     9
18.5309     4
18.5434    11
18.5559     8
18.5684     5
18.5809     6
18.5934    10
18.6059    11
18.6184    12
18.6309     8
18.6434    11
18.6559     8
18.6684     8
 18.681     7
18.6935    16
 18.706     5
18.7185     4
 18.731    15
18.7435    21
 18.756    11
18.7685    11
 18.781    10
18.7935     6
 18.806    12
18.8185     7
 18.831     3
18.8435     7
18.8561    12
18.8686    12
18.8811     7
18.8936    10
18.9061    11
18.9186     8
18.9311    10
18.9436    10
18.9561    13
18.9686    14
18.9811     5
18.9936    15
19.0061    14
19.0186     9
19.0312    13
19.0437     9
19.0562    11
19.0687    18
19.0812    11
19.0937     9
19.1062     9
19.1187     9
19.1312    10
19.1437     9
19.1562     7
19.1687     3
19.1812    15
19.1937    11
19.2063    10
19.2188     4
19.2313     8
19.2438     9
19.2563     6
19.2688     6
19.2813    12
19.2938     9
19.3063     9
19.3188    11
19.3313     8
19.3438     7
19.3563     6
19.3689    13
19.3814     7
19.3939     7
19.4064    10
19.4189     9
19.4314     6
19.4439     7
19.4564     8
19.4689    12
19.4814     7
19.4939     7
19.5064    18
19.5189    12
19.5314    12
 19.544    11
19.5565     9
 19.569     7
19.5815     8
 19.594    13
19.6065    11
 19.619    15
19.6315    12
 19.644    12
19.6565    11
 19.669     8
19.6815    11
 19.694     8
19.7065    14
19.7191     9
19.7316    12
19.7441     9
19.7566    11
19.7691    11
19.7816     8
19.7941     5
19.8066     9
19.8191     9
19.8316     2
19.8441     9
19.8566    10
19.8691     7
19.8816     6
19.8942    10
19.9067     7
19.9192    10
19.9317    11
19.9442    11
19.9567    14
19.9692    10
19.9817    15
19.9942     4
20.0067    16
20.0192     7
20.0317     5
20.0442    13
20.0568     9
20.0693    10
20.0818     8
20.0943    11
20.1068    11
20.1193     7
20.1318     7
20.1443    13
20.1568     7
20.1693    11
20.1818     5
20.1943    13
20.2068     9
20.2193     7
20.2319     9
20.2444     8
20.2569     8
20.2694    12
20.2819     3
20.2944    11
20.3069     5
20.3194     7
20.3319     8
20.3444    14
20.3569    15
20.3694     5
20.3819    10
20.3944     4
 20.407     5
20.4195    12
 20.432    11
20.4445    11
 20.457     5
20.4695     8
 20.482    11
20.4945    13
 20.507     9
20.5195     5
 20.532     8
20.5445     5
 20.557    10
20.5695     7
20.5821     5
20.5946     9
20.6071    13
20.6196     9
20.6321    10
20.6446    15
20.6571     9
20.6696    12
20.6821     6
20.6946     5
20.7071    11
20.7196     9
20.7321    10
20.7447     9
20.7572     5
20.7697     4
20.7822     4
20.7947     6
20.8072    11
20.8197     7
20.8322     3
20.8447    10
20.8572     9
20.8697    12
20.8822    10
20.8947     8
20.9072    12
20.9198     6
20.9323     7
20.9448     9
20.9573    10
20.9698    11
20.9823     6
20.9948     9
21.0073     5
21.0198    12
21.0323    11
21.0448     8
21.0573    12
21.0698     8
21.0823    11
21.0949     9
21.1074     6
21.1199    13
21.1324    11
21.1449     6
21.1574     5
21.1699     7
21.1824     7
21.1949     7
21.2074     7
21.2199     8
21.2324     7
21.2449     6
21.2574     5
  21.27     6
21.2825     7
 21.295     7
21.3075     3
  21.32     8
21.3325     8
 21.345     7
21.3575    11
  21.37     4
21.3825     9
 21.395    10
21.4075     9
  21.42    12
21.4326    12
21.4451    10
21.4576     8
21.4701     6
21.4826    12
21.4951     4
21.5076    15
21.5201     7
21.5326    11
21.5451     9
21.5576     3
21.5701     7
21.5826    10
21.5951    10
21.6077    14
21.6202    12
21.6327    12
21.6452     8
21.6577     8
21.6702    11
21.6827     5
21.6952     9
21.7077     7
21.7202     5
21.7327     7
21.7452     6
21.7577    12
21.7702     7
21.7828     8
21.7953     9
21.8078     8
21.8203     6
21.8328     8
21.8453     9
21.8578    10
21.8703     6
21.8828    11
21.8953     5
21.9078     6
21.9203     8
21.9328    14
21.9453     9
21.9579     8
21.9704     8
21.9829    10
21.9954     4
22.0079     6
22.0204     6
22.0329     9
22.0454     9
22.0579     4
22.0704    10
22.0829     7
22.0954     8
22.1079    11
22.1205     5
 22.133     5
22.1455     6
 22.158     7
22.1705     9
 22.183     6
22.1955    13
 22.208     7
22.2205     8
 22.233     7
22.2455     8
 22.258    10
22.2705    11
 22.283     6
22.2956     9
22.3081     4
22.3206     8
22.3331     4
22.3456    12
22.3581    12
22.3706     5
22.3831     4
22.3956     5
22.4081     7
22.4206     7
22.4331     7
22.4456    10
22.4581     5
22.4707     9
22.4832     7
22.4957     6
22.5082     6
22.5207     9
22.5332     2
22.5457     7
22.5582     4
22.5707     4
22.5832     4
22.5957    10
22.6082     7
22.6207     4
22.6332     4
22.6458     8
22.6583     2
22.6708     8
22.6833     4
22.6958     6
22.7083     8
22.7208     3
22.7333     3
22.7458     7
22.7583     7
22.7708    10
22.7833    10
22.7958    11
22.8084    14
22.8209     8
22.8334     9
22.8459     5
22.8584     5
22.8709     4
22.8834     8
22.8959     6
22.9084     6
22.9209    11
22.9334     8
22.9459     7
22.9584     9
22.9709     8
22.9835    10
 22.996    10
23.0085     7
 23.021    10
23.0335     8
 23.046    10
23.0585     9
 23.071     5
23.0835    14
 23.096    11
23.1085     3
 23.121     6
23.1335     9
 23.146     7
23.1586    12
23.1711     8
23.1836    10
23.1961    10
23.2086     8
23.2211     6
23.2336     5
23.2461     7
23.2586     4
23.2711     6
23.2836     7
23.2961     8
23.3086     7
23.3211     5
23.3337     8
23.3462     7
23.3587     8
23.3712     5
23.3837    10
23.3962     9
23.4087     5
23.4212    10
23.4337     9
23.4462     8
23.4587     8
23.4712     6
23.4837     6
23.4963     7
23.5088     4
23.5213     5
23.5338     7
23.5463     5
23.5588     2
23.5713     5
23.5838    11
23.5963    10
23.6088     2
23.6213     8
23.6338     4
23.6463     4
23.6588     7
23.6714     0
23.6839     5
23.6964     4
23.7089     5
23.7214     6
23.7339     3
23.7464    10
23.7589    10
23.7714    10
23.7839     8
23.7964     2
23.8089     2
23.8214     4
23.8339     6
23.8465     6
 23.859     5
23.8715     4
 23.884     2
23.8965     6
 23.909     6
23.9215     1
 23.934    11
23.9465     8
 23.959     3
23.9715     2
 23.984     4
23.9965     3
 24.009     2
24.0216     2
24.0341     3
24.0466     6
24.0591     4
24.0716     4
24.0841    10
24.0966     5
24.1091     5
24.1216     1
24.1341     7
24.1466     5
24.1591     5
24.1716     4
24.1842     9
24.1967     3
24.2092     9
24.2217     9
24.2342     4
24.2467     7
24.2592     5
24.2717     8
24.2842     3
24.2967     8
24.3092     9
24.3217     2
24.3342     3
24.3467     9
24.3593     7
24.3718     4
24.3843     4
24.3968     5
24.4093     9
24.4218    12
24.4343     2
24.4468     7
24.4593     2
24.4718     8
24.4843     6
24.4968     5
24.5093     2
24.5218     9
24.5344     5
24.5469     1
24.5594     9
24.5719     5
24.5844     3
24.5969    11
24.6094     8
24.6219     3
24.6344    11
24.6469     7
24.6594     3
24.6719     2
24.6844     3
24.6969     5
24.7095     6
 24.722     1
24.7345     4
 24.747     1
24.7595     1
 24.772     4
24.7845     1
 24.797     4
24.8095     2
 24.822     8
24.8345     3
 24.847     3
24.8595     5
24.8721     2
24.8846     6
24.8971    10
24.9096     6
24.9221     7
24.9346     3
24.9471     5
24.9596     6
24.9721     6
24.9846     6
24.9971     2
25.0096     5
25.0221     4
25.0346     8
25.0472    10
25.0597     4
25.0722     5
25.0847    15
25.0972     8
25.1097     4
25.1222     3
25.1347     4
25.1472     5
25.1597     7
25.1722     5
25.1847     9
25.1972     5
25.2097    10
25.2223     6
25.2348     3
25.2473     4
25.2598     3
25.2723     5
25.2848     4
25.2973     8
25.3098     2
25.3223     8
25.3348     4
25.3473     6
25.3598     5
25.3723     4
25.3848     8
25.3974     9
25.4099     6
25.4224     0
25.4349     9
25.4474     4
25.4599     4
25.4724     4
25.4849     3
25.4974     6
25.5099     7
25.5224     3
25.5349     8
25.5474     4
  25.56     7
25.5725     6
 25.585     5
25.5975     6
  25.61     7
25.6225     2
 25.635     4
25.6475     1
  25.66     4
25.6725     3
 25.685     2
25.6975     1
  25.71     3
25.7225     3
25.7351     6
25.7476     3
25.7601     2
25.7726     4
25.7851     6
25.7976     8
25.8101     4
25.8226     4
25.8351     4
25.8476     3
25.8601     5
25.8726     8
25.8851     4
25.8976     7
25.9102     8
25.9227     7
25.9352     7
25.9477     4
25.9602     3
25.9727     5
25.9852     5
25.9977     2
26.0102     4
26.0227     2
26.0352     1
26.0477     5
26.0602     4
26.0727     4
26.0853     4
26.0978     4
26.1103     4
26.1228     1
26.1353     2
26.1478     5
26.1603     3
26.1728     2
26.1853     1
26.1978     5
26.2103     3
26.2228     3
26.2353     6
26.2479     2
26.2604     8
26.2729     9
26.2854     3
26.2979     5
26.3104     3
26.3229     2
26.3354     3
26.3479     3
26.3604     4
26.3729     4
26.3854     5
26.3979     5
26.4104     6
 26.423     3
26.4355     7
 26.448     0
26.4605     5
 26.473     4
26.4855     6
 26.498     4
26.5105     1
 26.523     4
26.5355     7
 26.548     3
26.5605     0
 26.573     4
26.5855     4
26.5981     4
26.6106     3
26.6231     0
26.6356     3
26.6481     2
26.6606     5
26.6731     3
26.6856     3
26.6981     6
26.7106     2
26.7231     3
26.7356     5
26.7481     2
26.7606     3
26.7732     5
26.7857     3
26.7982     4
26.8107     4
26.8232     6
26.8357     4
26.8482     3
26.8607     3
26.8732     4
26.8857     5
26.8982     3
26.9107     3
26.9232     0
26.9358     4
26.9483     2
26.9608     6
26.9733     5
26.9858     7
26.9983     2
27.0108     4
27.0233     2
27.0358     4
27.0483     5
27.0608     3
27.0733     5
27.0858     2
27.0983     7
27.1109     4
27.1234     5
27.1359     5
27.1484     3
27.1609     0
27.1734     3
27.1859     2
27.1984     6
27.2109     1
27.2234     3
27.2359     1
27.2484     5
27.2609     1
27.2734     3
 27.286     2
27.2985     5
 27.311     4
27.3235     5
 27.336     2
27.3485     4
 27.361     4
27.3735     1
 27.386     2
27.3985     2
 27.411     3
27.4235     5
 27.436     2
27.4485     1
27.4611     4
27.4736     4
27.4861     3
27.4986     3
27.5111     1
27.5236     1
27.5361     3
27.5486     3
27.5611     4
27.5736     1
27.5861     1
27.5986     3
27.6111     2
27.6237     2
27.6362     3
27.6487     6
27.6612     4
27.6737     2
27.6862     1
27.6987     3
27.7112     8
27.7237     1
27.7362     2
27.7487     5
27.7612     6
27.7737     1
27.7862     3
27.7988     2
27.8113     2
27.8238     4
27.8363     6
27.8488     1
27.8613     4
27.8738     2
27.8863     4
27.8988     1
27.9113     4
27.9238     2
27.9363     2
27.9488     2
27.9613     2
27.9739     4
27.9864     6
27.9989     0
28.0114     5
28.0239     3
28.0364     2
28.0489     1
28.0614     3
28.0739     4
28.0864     5
28.0989     2
28.1114     4
28.1239     3
28.1364     2
 28.149     1
28.1615     3
 28.174     3
28.1865     1
 28.199     4
28.2115     1
 28.224     1
28.2365     1
 28.249     0
28.2615     4
 28.274     2
28.2865     3
 28.299     5
28.3116     2
28.3241     1
28.3366     3
28.3491     2
28.3616     4
28.3741     4
28.3866     2
28.3991     4
28.4116     5
28.4241     1
28.4366     2
28.4491     1
28.4616     4
28.4741     3
28.4867     3
28.4992     5
28.5117     0
28.5242     2
28.5367     2
28.5492     2
28.5617     4
28.5742     1
28.5867     3
28.5992     3
28.6117     0
28.6242     3
28.6367     0
28.6492     5
28.6618     7
28.6743     3
28.6868     0
28.6993     1
28.7118     2
28.7243     5
28.7368     2
28.7493     4
28.7618     2
28.7743     3
28.7868     1
28.7993     2
28.8118     5
28.8243     2
28.8369     1
28.8494     2
28.8619     2
28.8744     5
28.8869     7
28.8994     3
28.9119     7
28.9244     2
28.9369     4
28.9494     1
28.9619     6
28.9744     4
28.9869     4
28.9995     2
 29.012     2
29.0245     3
 29.037     3
29.0495     1
 29.062     2
29.0745     2
 29.087     2
29.0995     2
 29.112     2
29.1245     6
 29.137     0
29.1495     0
 29.162     0
29.1746     1
29.1871     3
29.1996     4
29.2121     1
29.2246     1
29.2371     3
29.2496     5
29.2621     2
29.2746     3
29.2871     2
29.2996     2
29.3121     3
29.3246     2
29.3371     3
29.3497     1
29.3622     3
29.3747     3
29.3872     4
29.3997     1
29.4122     3
29.4247     3
29.4372     2
29.4497     1
29.4622     4
29.4747     0
29.4872     4
29.4997     2
29.5123     1
29.5248     0
29.5373     2
29.5498     5
29.5623     1
29.5748     2
29.5873     3
29.5998     4
29.6123     3
29.6248     1
29.6373     4
29.6498     3
29.6623     3
29.6748     2
29.6874     2
29.6999     4
29.7124     1
29.7249     5
29.7374     3
29.7499     4
29.7624     2
29.7749     2
29.7874     2
29.7999     4
29.8124     2
29.8249     2
29.8374     0
29.8499     1
29.8625     0
 29.875     4
29.8875     1
   29.9     3
29.9125     3
 29.925     5
29.9375     2
  29.95     4
29.9625     1
 29.975     5
29.9875     3
     30     2
30.0125     3
 30.025     1
30.0376     1
30.0501     0
30.0626     1
30.0751     1
30.0876     2
30.1001     2
30.1126     2
30.1251     3
30.1376     0
30.1501     5
30.1626     1
30.1751     3
30.1876     3
30.2002     0
30.2127     4
30.2252     3
30.2377     1
30.2502     0
30.2627     1
30.2752     6
30.2877     1
30.3002     3
30.3127     1
30.3252     2
30.3377     2
30.3502     3
30.3627     2
30.3753     4
30.3878     2
30.4003     1
30.4128     2
30.4253     3
30.4378     4
30.4503     3
30.4628     3
30.4753     2
30.4878     2
30.5003     3
30.5128     4
30.5253     0
30.5378     2
30.5504     1
30.5629     2
30.5754     1
30.5879     1
30.6004     4
30.6129     1
30.6254     3
30.6379     1
30.6504     1
30.6629     4
30.6754     0
30.6879     0
30.7004     4
30.7129     4
30.7255     2
 30.738     2
30.7505     2
 30.763     0
30.7755     0
 30.788     1
30.8005     0
 30.813     1
30.8255     4
 30.838     2
30.8505     2
 30.863     1
30.8755     2
30.8881     1
30.9006     3
30.9131     1
30.9256     0
30.9381     3
30.9506     2
30.9631     2
30.9756     0
30.9881     1
31.0006     6
31.0131     4
31.0256     2
31.0381     1
31.0506     3
31.0632     3
31.0757     2
31.0882     0
31.1007     0
31.1132     1
31.1257     2
31.1382     3
31.1507     4
31.1632     4
31.1757     0
31.1882     0
31.2007     1
31.2132     1
31.2257     1
31.2383     1
31.2508     2
31.2633     1
31.2758     2
31.2883     2
31.3008     1
31.3133     1
31.3258     2
31.3383     1
31.3508     1
31.3633     1
31.3758     1
31.3883     3
31.4008     4
31.4134     3
31.4259     2
31.4384     2
31.4509     1
31.4634     0
31.4759     0
31.4884     2
31.5009     2
31.5134     6
31.5259     2
31.5384     0
31.5509     3
31.5634     2
 31.576     1
31.5885     0
 31.601     1
31.6135     0
 31.626     3
31.6385     1
 31.651     0
31.6635     2
 31.676     2
31.6885     3
 31.701     2
31.7135     1
 31.726     2
31.7385     0
31.7511     3
31.7636     2
31.7761     0
31.7886     1
31.8011     1
31.8136     0
31.8261     2
31.8386     4
31.8511     1
31.8636     1
31.8761     1
31.8886     4
31.9011     2
31.9136     1
31.9262     1
31.9387     1
31.9512     0
31.9637     1
31.9762     2
31.9887     2
32.0012     1
32.0137     0
32.0262     2
32.0387     1
32.0512     1
32.0637     3
32.0762     2
32.0887     2
32.1013     2
32.1138     3
32.1263     2
32.1388     2
32.1513     1
32.1638     2
32.1763     2
32.1888     3
32.2013     3
32.2138     5
32.2263     2
32.2388     3
32.2513     0
32.2639     3
32.2764     3
32.2889     2
32.3014     4
32.3139     1
32.3264     5
32.3389     0
32.3514     0
32.3639     1
32.3764     1
32.3889     2
32.4014     2
32.4139     0
32.4264     2
 32.439     2
32.4515     1
 32.464     0
32.4765     3
 32.489     1
32.5015     2
 32.514     1
32.5265     1
 32.539     1
32.5515     2
 32.564     3
32.5765     1
 32.589     0
32.6015     2
32.6141     1
32.6266     1
32.6391     1
32.6516     1
32.6641     2
32.6766     2
32.6891     3
32.7016     1
32.7141     2
32.7266     0
32.7391     0
32.7516     3
32.7641     2
32.7766     2
32.7892     2
32.8017     2
32.8142     1
32.8267     0
32.8392     1
32.8517     3
32.8642     2
32.8767     1
32.8892     2
32.9017     0
32.9142     2
32.9267     4
32.9392     3
32.9518     3
32.9643     3
32.9768     5
32.9893     2
33.0018     0
33.0143     1
33.0268     0
33.0393     2
33.0518     1
33.0643     2
33.0768     0
33.0893     2
33.1018     2
33.1143     1
33.1269     3
33.1394     4
33.1519     1
33.1644     4
33.1769     3
33.1894     0
33.2019     3
33.2144     3
33.2269     2
33.2394     0
33.2519     2
33.2644     0
33.2769     0
33.2894     0
 33.302     3
33.3145     1
 33.327     4
33.3395     0
 33.352     1
33.3645     0
 33.377     1
33.3895     2
 33.402     3
33.4145     2
 33.427     2
33.4395     2
 33.452     0
33.4645     3
33.4771     1
33.4896     2
33.5021     1
33.5146     2
33.5271     1
33.5396     0
33.5521     2
33.5646     0
33.5771     2
33.5896     1
33.6021     1
33.6146     1
33.6271     0
33.6397     1
33.6522     2
33.6647     0
33.6772     1
33.6897     0
33.7022     0
33.7147     0
33.7272     0
33.7397     2
33.7522     1
33.7647     2
33.7772     0
33.7897     2
33.8022     1
33.8148     1
33.8273     0
33.8398     2
33.8523     1
33.8648     1
33.8773     1
33.8898     1
33.9023     4
33.9148     0
33.9273     1
33.9398     0
33.9523     1
33.9648     0
33.9773     3
33.9899     3
34.0024     0
34.0149     4
34.0274     1
34.0399     1
34.0524     1
34.0649     1
34.0774     1
34.0899     0
34.1024     3
34.1149     0
34.1274     1
34.1399     1
34.1524     0
 34.165     0
34.1775     0
  34.19     2
34.2025     0
 34.215     0
34.2275     3
  34.24     1
34.2525     3
 34.265     1
34.2775     1
  34.29     2
34.3025     0
 34.315     0
34.3276     2
34.3401     0
34.3526     3
34.3651     1
34.3776     1
34.3901     0
34.4026     0
34.4151     1
34.4276     1
34.4401     1
34.4526     1
34.4651     3
34.4776     3
34.4901     0
34.5027     1
34.5152     1
34.5277     2
34.5402     1
34.5527     1
34.5652     0
34.5777     1
34.5902     0
34.6027     2
34.6152     1
34.6277     2
34.6402     2
34.6527     0
34.6652     1
34.6778     0
34.6903     0
34.7028     0
34.7153     3
34.7278     1
34.7403     0
34.7528     0
34.7653     0
34.7778     0
34.7903     0
34.8028     2
34.8153     2
34.8278     1
34.8403     1
34.8529     0
34.8654     1
34.8779     0
34.8904     1
34.9029     1
34.9154     1
34.9279     1
34.9404     1
34.9529     2
34.9654     2
34.9779     3
34.9904     1
35.0029     2
35.0155     1
 35.028     1
35.0405     0
 35.053     1
35.0655     0
 35.078     3
35.0905     3
 35.103     0
35.1155     2
 35.128     0
35.1405     0
 35.153     0
35.1655     2
 35.178     1
35.1906     0
35.2031     1
35.2156     0
35.2281     1
35.2406     0
35.2531     3
35.2656     1
35.2781     1
35.2906     0
35.3031     0
35.3156     1
35.3281     0
35.3406     1
35.3531     0
35.3657     2
35.3782     1
35.3907     1
35.4032     2
35.4157     0
35.4282     1
35.4407     2
35.4532     1
35.4657     2
35.4782     0
35.4907     1
35.5032     2
35.5157     1
35.5282     1
35.5408     2
35.5533     1
35.5658     0
35.5783     0
35.5908     0
35.6033     2
35.6158     0
35.6283     0
35.6408     1
35.6533     1
35.6658     1
35.6783     0
35.6908     1
35.7034     2
35.7159     2
35.7284     1
35.7409     0
35.7534     1
35.7659     1
35.7784     3
35.7909     1
35.8034     1
35.8159     0
35.8284     1
35.8409     0
35.8534     0
35.8659     0
35.8785     0
 35.891     0
35.9035     2
 35.916     1
35.9285     0
 35.941     2
35.9535     1
 35.966     1
35.9785     0
 35.991     1
36.0035     0
 36.016     0
36.0285     1
 36.041     1
36.0536     3
36.0661     1
36.0786     1
36.0911     0
36.1036     2
36.1161     0
36.1286     0
36.1411     0
36.1536     1
36.1661     0
36.1786     0
36.1911     2
36.2036     0
36.2161     1
36.2287     0
36.2412     0
36.2537     0
36.2662     1
36.2787     0
36.2912     2
36.3037     0
36.3162     1
36.3287     0
36.3412     0
36.3537     0
36.3662     0
36.3787     0
36.3913     0
36.4038     1
36.4163     0
36.4288     1
36.4413     1
36.4538     2
36.4663     3
36.4788     0
36.4913     0
36.5038     0
36.5163     0
36.5288     0
36.5413     0
36.5538     0
36.5664     1
36.5789     0
36.5914     1
36.6039     0
36.6164     2
36.6289     1
36.6414     0
36.6539     1
36.6664     0
36.6789     2
36.6914     0
36.7039     0
36.7164     0
36.7289     0
36.7415     0
 36.754     2
36.7665     0
 36.779     2
36.7915     0
 36.804     1
36.8165     0
 36.829     2
36.8415     0
 36.854     3
36.8665     0
 36.879     1
36.8915     0
 36.904     0
36.9166     0
36.9291     2
36.9416     1
36.9541     0
36.9666     0
36.9791     1
36.9916     0
37.0041     0
37.0166     0
37.0291     0
37.0416     0
37.0541     0
37.0666     0
37.0792     1
37.0917     0
37.1042     0
37.1167     0
37.1292     1
37.1417     1
37.1542     1
37.1667     1
37.1792     0
37.1917     1
37.2042     0
37.2167     1
37.2292     0
37.2417     0
37.2543     0
37.2668     1
37.2793     2
37.2918     1
37.3043     0
37.3168     0
37.3293     0
37.3418     1
37.3543     0
37.3668     0
37.3793     1
37.3918     0
37.4043     0
37.4168     1
37.4294     0
37.4419     1
37.4544     0
37.4669     0
37.4794     0
37.4919     1
37.5044     0
37.5169     0
37.5294     1
37.5419     0
37.5544     1
37.5669     0
37.5794     1
37.5919     0
37.6045     0
 37.617     0
37.6295     1
 37.642     0
37.6545     1
 37.667     1
37.6795     0
 37.692     0
37.7045     0
 37.717     1
37.7295     0
 37.742     0
37.7545     0
37.7671     0
37.7796     1
37.7921     1
37.8046     0
37.8171     1
37.8296     2
37.8421     1
37.8546     1
37.8671     0
37.8796     1
37.8921     0
37.9046     0
37.9171     0
37.9296     0
37.9422     0
37.9547     0
37.9672     1
37.9797     2
37.9922     1
38.0047     0
38.0172     0
38.0297     2
38.0422     0
38.0547     0
38.0672     1
38.0797     0
38.0922     1
38.1047     1
38.1173     0
38.1298     0
38.1423     0
38.1548     0
38.1673     1
38.1798     0
38.1923     1
38.2048     0
38.2173     0
38.2298     0
38.2423     0
38.2548     0
38.2673     0
38.2798     0
38.2924     0
38.3049     0
38.3174     0
38.3299     0
38.3424     1
38.3549     2
38.3674     1
38.3799     0
38.3924     0
38.4049     1
38.4174     0
38.4299     2
38.4424     1
 38.455     0
38.4675     0
  38.48     0
38.4925     0
 38.505     0
38.5175     0
  38.53     0
38.5425     1
 38.555     0
38.5675     0
  38.58     0
38.5925     0
 38.605     0
38.6175     1
38.6301     2
38.6426     0
38.6551     0
38.6676     1
38.6801     1
38.6926     1
38.7051     1
38.7176     0
38.7301     0
38.7426     0
38.7551     0
38.7676     0
38.7801     0
38.7926     1
38.8052     2
38.8177     0
38.8302     0
38.8427     0
38.8552     0
38.8677     0
38.8802     0
38.8927     0
38.9052     1
38.9177     1
38.9302     0
38.9427     0
38.9552     0
38.9677     1
38.9803     2
38.9928     1
39.0053     1
39.0178     0
39.0303     0
39.0428     2
39.0553     0
39.0678     0
39.0803     0
39.0928     2
39.1053     0
39.1178     0
39.1303     1
39.1429     0
39.1554     0
39.1679     2
39.1804     0
39.1929     0
39.2054     0
39.2179     0
39.2304     0
39.2429     0
39.2554     0
39.2679     0
39.2804     0
39.2929     1
39.3054     0
 39.318     0
39.3305     0
 39.343     0
39.3555     0
 39.368     1
39.3805     0
 39.393     0
39.4055     1
 39.418     0
39.4305     0
 39.443     0
39.4555     0
 39.468     2
39.4805     0
39.4931     0
39.5056     1
39.5181     0
39.5306     0
39.5431     1
39.5556     0
39.5681     0
39.5806     0
39.5931     0
39.6056     1
39.6181     0
39.6306     0
39.6431     0
39.6556     0
39.6682     0
39.6807     0
39.6932     0
39.7057     0
39.7182     0
39.7307     0
39.7432     0
39.7557     1
39.7682     0
39.7807     0
39.7932     0
39.8057     1
39.8182     1
39.8308     0
39.8433     0
39.8558     0
39.8683     0
39.8808     0
39.8933     0
39.9058     1
39.9183     0
39.9308     0
39.9433     0
39.9558     0
39.9683     0
39.9808     0
39.9933     0
40.0059     0
40.0184     0
40.0309     0
40.0434     1
40.0559     0
40.0684     0
40.0809     1
40.0934     0
40.1059     0
40.1184     1
40.1309     0
40.1434     1
40.1559     0
40.1684     1
 40.181     0
40.1935     1
 40.206     1
40.2185     1
 40.231     0
40.2435     0
 40.256     0
40.2685     0
 40.281     0
40.2935     0
 40.306     0
40.3185     0
 40.331     0
40.3435     0
40.3561     1
40.3686     0
40.3811     0
40.3936     0
40.4061     0
40.4186     1
40.4311     0
40.4436     0
40.4561     0
40.4686     0
40.4811     0
40.4936     0
40.5061     1
40.5187     0
40.5312     0
40.5437     0
40.5562     0
40.5687     0
40.5812     0
40.5937     0
40.6062     0
40.6187     0
40.6312     0
40.6437     0
40.6562     0
40.6687     0
40.6812     0
40.6938     1
40.7063     0
40.7188     0
40.7313     0
40.7438     0
40.7563     0
40.7688     0
40.7813     2
40.7938     0
40.8063     0
40.8188     0
40.8313     0
40.8438     0
40.8563     0
40.8689     1
40.8814     0
40.8939     0
40.9064     0
40.9189     0
40.9314     0
40.9439     0
40.9564     1
40.9689     0
40.9814     0
40.9939     0
41.0064     0
41.0189     0
41.0314     0
 41.044     1
41.0565     0
 41.069     1
41.0815     0
 41.094     0
41.1065     0
 41.119     0
41.1315     1
 41.144     0
41.1565     0
 41.169     0
41.1815     1
 41.194     0
41.2066     0
41.2191     1
41.2316     1
41.2441     0
41.2566     0
41.2691     0
41.2816     0
41.2941     0
41.3066     0
41.3191     0
41.3316     0
41.3441     1
41.3566     0
41.3691     0
41.3817     0
41.3942     0
41.4067     0
41.4192     0
41.4317     0
41.4442     0
41.4567     0
41.4692     0
41.4817     0
41.4942     0
41.5067     0
41.5192     0
41.5317     0
41.5442     0
41.5568     0
41.5693     0
41.5818     0
41.5943     0
41.6068     0
41.6193     0
41.6318     0
41.6443     0
41.6568     0
41.6693     0
41.6818     0
41.6943     0
41.7068     0
41.7193     0
41.7319     0
41.7444     0
41.7569     0
41.7694     0
41.7819     0
41.7944     0
41.8069     0
41.8194     0
41.8319     0
41.8444     0
41.8569     0
41.8694     0
41.8819     0
41.8945     1
 41.907     0
41.9195     0
 41.932     0
41.9445     0
 41.957     0
41.9695     1
 41.982     0
41.9945     0
 42.007     0
42.0195     0
 42.032     0
42.0445     0
 42.057     0
42.0696     0
42.0821     0
42.0946     0
42.1071     0
42.1196     0
42.1321     0
42.1446     0
42.1571     0
42.1696     0
42.1821     0
42.1946     0
42.2071     0
42.2196     0
42.2321     0
42.2447     0
42.2572     0
42.2697     0
42.2822     0
42.2947     0
42.3072     0
42.3197     0
42.3322     0
42.3447     0
42.3572     0
42.3697     0
42.3822     1
42.3947     0
42.4072     0
42.4198     1
42.4323     0
42.4448     0
42.4573     0
42.4698     0
42.4823     0
42.4948     0
42.5073     1
42.5198     0
42.5323     0
42.5448     0
42.5573     0
42.5698     1
42.5824     0
42.5949     0
42.6074     0
42.6199     0
42.6324     1
42.6449     2
42.6574     0
42.6699     0
42.6824     0
42.6949     0
42.7074     0
42.7199     0
42.7324     0
42.7449     0
42.7575     0
  42.77     0
42.7825     0
 42.795     0
42.8075     0
  42.82     0
42.8325     0
 42.845     0
42.8575     0
  42.87     0
42.8825     0
 42.895     0
42.9075     0
  42.92     0
42.9326     0
42.9451     0
42.9576     0
42.9701     0
42.9826     0
42.9951     0
43.0076     0
43.0201     0
43.0326     1
43.0451     0
43.0576     0
43.0701     0
43.0826     0
43.0951     0
43.1077     0
43.1202     0
43.1327     0
43.1452     0
43.1577     0
43.1702     0
43.1827     0
43.1952     0
43.2077     0
43.2202     0
43.2327     0
43.2452     0
43.2577     0
43.2703     0
43.2828     0
43.2953     0
43.3078     0
43.3203     0
43.3328     0
43.3453     0
43.3578     0
43.3703     0
43.3828     0
43.3953     0
43.4078     0
43.4203     0
43.4328     0
43.4454     0
43.4579     0
43.4704     0
43.4829     0
43.4954     0
43.5079     0
43.5204     0
43.5329     0
43.5454     0
43.5579     0
43.5704     0
43.5829     0
43.5954     1
43.6079     1
43.6205     0
 43.633     0
43.6455     0
 43.658     0
43.6705     0
 43.683     0
43.6955     0
 43.708     0
43.7205     0
 43.733     0
43.7455     0
 43.758     0
43.7705     0
 43.783     0
43.7956     0
43.8081     0
43.8206     0
43.8331     0
43.8456     0
43.8581     0
43.8706     0
43.8831     0
43.8956     0
43.9081     0
43.9206     0
43.9331     0
43.9456     0
43.9582     0
43.9707     0
43.9832     0
43.9957     1
44.0082     0
44.0207     0
44.0332     0
44.0457     0
44.0582     0
44.0707     0
44.0832     0
44.0957     0
44.1082     0
44.1207     0
44.1333     0
44.1458     0
44.1583     0
44.1708     0
44.1833     0
44.1958     0
44.2083     0
44.2208     0
44.2333     0
44.2458     0
44.2583     0
44.2708     0
44.2833     0
44.2958     0
44.3084     0
44.3209     0
44.3334     0
44.3459     0
44.3584     0
44.3709     0
44.3834     0
44.3959     0
44.4084     0
44.4209     0
44.4334     0
44.4459     0
44.4584     0
44.4709     0
44.4835     0
 44.496     0
44.5085     0
 44.521     0
44.5335     0
 44.546     0
44.5585     0
 44.571     0
44.5835     0
 44.596     0
44.6085     0
 44.621     0
44.6335     0
44.6461     0
44.6586     0
44.6711     0
44.6836     0
44.6961     0
44.7086     0
44.7211     0
44.7336     0
44.7461     0
44.7586     0
44.7711     0
44.7836     0
44.7961     0
44.8086     0
44.8212     0
44.8337     0
44.8462     0
44.8587     0
44.8712     0
44.8837     0
44.8962     0
44.9087     0
44.9212     0
44.9337     0
44.9462     0
44.9587     0
44.9712     0
44.9837     0
44.9963     0
45.0088     0
45.0213     0
45.0338     0
45.0463     0
45.0588     0
45.0713     0
45.0838     0
45.0963     1
45.1088     0
45.1213     0
45.1338     0
45.1463     0
45.1588     0
45.1714     1
45.1839     0
45.1964     0
45.2089     0
45.2214     0
45.2339     0
45.2464     1
45.2589     0
45.2714     0
45.2839     0
45.2964     0
45.3089     0
45.3214     0
 45.334     0
45.3465     0
 45.359     0
45.3715     0
 45.384     0
45.3965     0
 45.409     0
45.4215     0
 45.434     0
45.4465     0
 45.459     0
45.4715     0
 45.484     0
45.4965     0
45.5091     0
45.5216     0
45.5341     0
45.5466     0
45.5591     0
45.5716     0
45.5841     0
45.5966     0
45.6091     0
45.6216     0
45.6341     0
45.6466     0
45.6591     0
45.6716     0
45.6842     0
45.6967     0
45.7092     0
45.7217     0
45.7342     0
45.7467     0
45.7592     0
45.7717     0
45.7842     0
45.7967     0
45.8092     0
45.8217     0
45.8342     0
45.8467     0
45.8593     0
45.8718     0
45.8843     0
45.8968     0
45.9093     0
45.9218     0
45.9343     0
45.9468     0
45.9593     0
45.9718     0
45.9843     0
45.9968     0
46.0093     0
46.0219     0
46.0344     0
46.0469     0
46.0594     0
46.0719     0
46.0844     0
46.0969     0
46.1094     0
46.1219     0
46.1344     0
46.1469     0
46.1594     0
46.1719     0
46.1844     0
 46.197     0
46.2095     0
 46.222     0
46.2345     0
 46.247     0
46.2595     0
 46.272     0
46.2845     0
 46.297     0
46.3095     0
 46.322     0
46.3345     0
 46.347     1
46.3595     0
46.3721     0
46.3846     0
46.3971     0
46.4096     0
46.4221     0
46.4346     0
46.4471     0
46.4596     0
46.4721     0
46.4846     0
46.4971     0
46.5096     0
46.5221     0
46.5346     0
46.5472     0
46.5597     0
46.5722     0
46.5847     0
46.5972     0
46.6097     0
46.6222     0
46.6347     0
46.6472     0
46.6597     0
46.6722     0
46.6847     0
46.6972     0
46.7098     0
46.7223     0
46.7348     0
46.7473     0
46.7598     0
46.7723     0
46.7848     0
46.7973     0
46.8098     0
46.8223     0
46.8348     0
46.8473     0
46.8598     0
46.8723     0
46.8849     0
46.8974     0
46.9099     0
46.9224     0
46.9349     0
46.9474     0
46.9599     0
46.9724     0
46.9849     1
46.9974     0
47.0099     0
47.0224     0
47.0349     0
47.0474     0
  47.06     0
47.0725     0
 47.085     0
47.0975     0
  47.11     0
47.1225     0
 47.135     0
47.1475     0
  47.16     0
47.1725     0
 47.185     0
47.1975     0
  47.21     0
47.2225     0
47.2351     0
47.2476     0
47.2601     0
47.2726     0
47.2851     0
47.2976     0
47.3101     0
47.3226     0
47.3351     0
47.3476     0
47.3601     0
47.3726     0
47.3851     0
47.3977     0
47.4102     0
47.4227     0
47.4352     0
47.4477     0
47.4602     0
47.4727     0
47.4852     0
47.4977     0
47.5102     0
47.5227     0
47.5352     0
47.5477     0
47.5602     0
47.5728     0
47.5853     0
47.5978     0
47.6103     0
47.6228     0
47.6353     0
47.6478     0
47.6603     0
47.6728     0
47.6853     0
47.6978     0
47.7103     0
47.7228     0
47.7353     0
47.7479     0
47.7604     0
47.7729     0
47.7854     0
47.7979     0
47.8104     0
47.8229     0
47.8354     0
47.8479     0
47.8604     0
47.8729     0
47.8854     0
47.8979     0
47.9104     0
 47.923     0
47.9355     0
 47.948     0
47.9605     0
 47.973     0
47.9855     0
 47.998     0
48.0105     0
 48.023     0
48.0355     0
 48.048     0
48.0605     0
 48.073     0
48.0856     0
48.0981     0
48.1106     0
48.1231     0
48.1356     0
48.1481     0
48.1606     0
48.1731     0
48.1856     0
48.1981     0
48.2106     0
48.2231     0
48.2356     0
48.2481     0
48.2607     0
48.2732     0
48.2857     0
48.2982     0
48.3107     0
48.3232     0
48.3357     0
48.3482     0
48.3607     0
48.3732     0
48.3857     0
48.3982     0
48.4107     0
48.4232     0
48.4358     0
48.4483     0
48.4608     0
48.4733     0
48.4858     0
48.4983     0
48.5108     0
48.5233     0
48.5358     0
48.5483     0
48.5608     0
48.5733     0
48.5858     0
48.5983     0
48.6109     0
48.6234     0
48.6359     0
48.6484     0
48.6609     0
48.6734     0
48.6859     0
48.6984     0
48.7109     0
48.7234     0
48.7359     0
48.7484     0
48.7609     0
48.7735     0
 48.786     0
48.7985     0
 48.811     0
48.8235     0
 48.836     0
48.8485     0
 48.861     0
48.8735     0
 48.886     0
48.8985     0
 48.911     0
48.9235     0
 48.936     0
48.9486     0
48.9611     0
48.9736     0
48.9861     0
48.9986     0
49.0111     0
49.0236     0
49.0361     0
49.0486     0
49.0611     0
49.0736     0
49.0861     0
49.0986     0
49.1111     0
49.1237     0
49.1362     0
49.1487     0
49.1612     0
49.1737     0
49.1862     0
49.1987     0
49.2112     0
49.2237     0
49.2362     0
49.2487     0
49.2612     0
49.2737     0
49.2862     0
49.2988     0
49.3113     0
49.3238     0
49.3363     0
49.3488     0
49.3613     0
49.3738     0
49.3863     0
49.3988     0
49.4113     0
49.4238     0
49.4363     0
49.4488     0
49.4614     0
49.4739     0
49.4864     0
49.4989     0
49.5114     0
49.5239     0
49.5364     0
49.5489     0
49.5614     0
49.5739     0
49.5864     0
49.5989     0
49.6114     0
49.6239     0
49.6365     0
 49.649     0
49.6615     0
 49.674     0
49.6865     0
 49.699     0
49.7115     0
 49.724     0
49.7365     0
 49.749     0
49.7615     0
 49.774     0
49.7865     0
 49.799     0
49.8116     0
49.8241     0
49.8366     0
49.8491     0
49.8616     0
49.8741     0
49.8866     0
49.8991     0
49.9116     0
49.9241     0
49.9366     0
49.9491     0
49.9616     0
49.9741     0
49.9867     0
49.9992     0
50.0117     0
50.0242     0
