RÖNTEC GmbH Berlin, Germany
Quantax 1.2

Date: 3/3/2015 12:55:16 PM
Real time: 60880
Life time: 60002
Pulse density: 6052


Detector type: XFLASH 3001
Window type: 
Detector thickness: 0.45
Si dead layer:0

Calibration, lin.: 12.507
Calibration, abs.: -1193.107
Mn FWHM: 142.37
Fano factor: 0.105
Channels: 4096

Energy Counts
-1.1931     0
-1.1806     0
-1.1681     0
-1.1556     0
-1.1431     0
-1.1306     0
-1.1181     0
-1.1056     0
 -1.093     0
-1.0805     0
 -1.068     0
-1.0555     0
 -1.043     0
-1.0305     0
 -1.018     0
-1.0055     0
 -0.993     0
-0.9805     0
 -0.968     0
-0.9555     0
 -0.943     0
-0.9305     0
-0.9179     0
-0.9054     0
-0.8929     0
-0.8804     0
-0.8679     0
-0.8554     0
-0.8429     0
-0.8304     0
-0.8179     0
-0.8054     0
-0.7929     0
-0.7804     0
-0.7679     0
-0.7554     0
-0.7428     0
-0.7303     0
-0.7178     0
-0.7053     0
-0.6928     0
-0.6803     0
-0.6678     0
-0.6553     0
-0.6428     0
-0.6303     0
-0.6178     0
-0.6053     0
-0.5928     0
-0.5803     0
-0.5677     0
-0.5552     0
-0.5427     0
-0.5302     0
-0.5177     0
-0.5052     0
-0.4927     0
-0.4802     0
-0.4677     0
-0.4552     0
-0.4427     0
-0.4302     0
-0.4177     0
-0.4051     0
-0.3926     0
-0.3801     0
-0.3676     0
-0.3551     0
-0.3426     0
-0.3301     0
-0.3176     0
-0.3051     0
-0.2926     0
-0.2801     0
-0.2676     0
-0.2551     0
-0.2426     0
  -0.23     0
-0.2175     0
 -0.205     0
-0.1925     0
  -0.18     0
-0.1675     0
 -0.155     0
-0.1425     4
  -0.13    16
-0.1175    70
 -0.105   244
-0.0925   867
  -0.08  2603
-0.0675  6251
-0.0549 13584
-0.0424 25644
-0.0299 42839
-0.0174 62325
-0.0049 79133
 0.0076 87053
 0.0201 84265
 0.0326 71153
 0.0451 53248
 0.0576 34223
 0.0701 19433
 0.0826  9663
 0.0951  4065
 0.1076  1510
 0.1202   520
 0.1327   162
 0.1452    43
 0.1577    16
 0.1702     1
 0.1827     4
 0.1952     1
 0.2077     0
 0.2202     1
 0.2327     1
 0.2452     1
 0.2577     1
 0.2702     0
 0.2828     1
 0.2953     0
 0.3078     2
 0.3203     0
 0.3328     0
 0.3453     0
 0.3578     0
 0.3703     0
 0.3828     0
 0.3953     0
 0.4078     0
 0.4203     1
 0.4328     3
 0.4453    14
 0.4579    34
 0.4704    48
 0.4829    32
 0.4954    38
 0.5079    35
 0.5204    46
 0.5329    29
 0.5454    41
 0.5579    54
 0.5704    37
 0.5829    45
 0.5954    42
 0.6079    27
 0.6204    37
  0.633    44
 0.6455    38
  0.658    46
 0.6705    42
  0.683    43
 0.6955    41
  0.708    35
 0.7205    40
  0.733    28
 0.7455    25
  0.758    25
 0.7705    28
  0.783    32
 0.7955    23
 0.8081    20
 0.8206    27
 0.8331    35
 0.8456    24
 0.8581    31
 0.8706    29
 0.8831    27
 0.8956    16
 0.9081    20
 0.9206    18
 0.9331    24
 0.9456    29
 0.9581    26
 0.9707    17
 0.9832    18
 0.9957    24
 1.0082    29
 1.0207    16
 1.0332    34
 1.0457    28
 1.0582    24
 1.0707    23
 1.0832    15
 1.0957    19
 1.1082    28
 1.1207    21
 1.1332    23
 1.1458    15
 1.1583    15
 1.1708    18
 1.1833    19
 1.1958    22
 1.2083    23
 1.2208    12
 1.2333    17
 1.2458    23
 1.2583    15
 1.2708    27
 1.2833    20
 1.2958    20
 1.3083    21
 1.3209    14
 1.3334    20
 1.3459    21
 1.3584    20
 1.3709    19
 1.3834    24
 1.3959    25
 1.4084    19
 1.4209    19
 1.4334    16
 1.4459    22
 1.4584    21
 1.4709    20
 1.4834    17
  1.496    25
 1.5085    26
  1.521    18
 1.5335    30
  1.546    18
 1.5585    27
  1.571    27
 1.5835    23
  1.596    17
 1.6085    20
  1.621    25
 1.6335    22
  1.646    20
 1.6586    22
 1.6711    27
 1.6836    29
 1.6961    24
 1.7086    44
 1.7211    49
 1.7336    49
 1.7461    59
 1.7586    50
 1.7711    58
 1.7836    54
 1.7961    43
 1.8086    39
 1.8211    32
 1.8337    27
 1.8462    42
 1.8587    25
 1.8712    30
 1.8837    29
 1.8962    22
 1.9087    30
 1.9212    23
 1.9337    23
 1.9462    30
 1.9587    26
 1.9712    22
 1.9837    19
 1.9962    30
 2.0088    24
 2.0213    21
 2.0338    19
 2.0463    26
 2.0588    19
 2.0713    28
 2.0838    13
 2.0963    22
 2.1088    25
 2.1213    21
 2.1338    25
 2.1463    18
 2.1588    22
 2.1713    26
 2.1839    22
 2.1964    30
 2.2089    23
 2.2214    21
 2.2339    34
 2.2464    48
 2.2589    59
 2.2714    73
 2.2839   121
 2.2964   162
 2.3089   195
 2.3214   247
 2.3339   273
 2.3465   337
  2.359   347
 2.3715   334
  2.384   313
 2.3965   326
  2.409   320
 2.4215   306
  2.434   301
 2.4465   292
  2.459   282
 2.4715   236
  2.484   183
 2.4965   165
  2.509   152
 2.5216   107
 2.5341    95
 2.5466    78
 2.5591    58
 2.5716    48
 2.5841    44
 2.5966    43
 2.6091    37
 2.6216    53
 2.6341    48
 2.6466    59
 2.6591    51
 2.6716    55
 2.6841    45
 2.6967    42
 2.7092    48
 2.7217    32
 2.7342    31
 2.7467    29
 2.7592    19
 2.7717    28
 2.7842    27
 2.7967    22
 2.8092    18
 2.8217    14
 2.8342    20
 2.8467    23
 2.8592    24
 2.8718    13
 2.8843    35
 2.8968    30
 2.9093    32
 2.9218    34
 2.9343    33
 2.9468    36
 2.9593    43
 2.9718    32
 2.9843    46
 2.9968    28
 3.0093    36
 3.0218    33
 3.0344    46
 3.0469    28
 3.0594    31
 3.0719    33
 3.0844    29
 3.0969    30
 3.1094    38
 3.1219    40
 3.1344    44
 3.1469    30
 3.1594    27
 3.1719    40
 3.1844    49
 3.1969    30
 3.2095    48
  3.222    68
 3.2345    96
  3.247   133
 3.2595   182
  3.272   253
 3.2845   274
  3.297   339
 3.3095   338
  3.322   374
 3.3345   365
  3.347   351
 3.3595   314
  3.372   242
 3.3846   212
 3.3971   139
 3.4096   106
 3.4221    80
 3.4346    66
 3.4471    42
 3.4596    35
 3.4721    26
 3.4846    27
 3.4971    30
 3.5096    41
 3.5221    49
 3.5346    48
 3.5471    68
 3.5597    83
 3.5722    90
 3.5847    98
 3.5972   171
 3.6097   187
 3.6222   244
 3.6347   312
 3.6472   364
 3.6597   489
 3.6722   496
 3.6847   568
 3.6972   569
 3.7097   559
 3.7223   551
 3.7348   484
 3.7473   414
 3.7598   298
 3.7723   254
 3.7848   183
 3.7973   125
 3.8098    88
 3.8223    59
 3.8348    40
 3.8473    32
 3.8598    24
 3.8723    16
 3.8848    30
 3.8974    13
 3.9099    19
 3.9224    37
 3.9349    37
 3.9474    44
 3.9599    57
 3.9724    68
 3.9849    88
 3.9974    91
 4.0099   104
 4.0224    93
 4.0349    87
 4.0474    80
 4.0599    75
 4.0725    85
  4.085    54
 4.0975    40
   4.11    33
 4.1225    27
  4.135    22
 4.1475    22
   4.16    16
 4.1725    14
  4.185    18
 4.1975     9
   4.21    10
 4.2225    17
  4.235    12
 4.2476    21
 4.2601    17
 4.2726    22
 4.2851    23
 4.2976    17
 4.3101     9
 4.3226    16
 4.3351    14
 4.3476    14
 4.3601    17
 4.3726    25
 4.3851    24
 4.3976    24
 4.4102    29
 4.4227    36
 4.4352    34
 4.4477    61
 4.4602    53
 4.4727    68
 4.4852    64
 4.4977    68
 4.5102    69
 4.5227    72
 4.5352    71
 4.5477    78
 4.5602    59
 4.5727    54
 4.5853    50
 4.5978    36
 4.6103    36
 4.6228    32
 4.6353    20
 4.6478    25
 4.6603    18
 4.6728    18
 4.6853    19
 4.6978    13
 4.7103    18
 4.7228    17
 4.7353    11
 4.7478    23
 4.7604    14
 4.7729    17
 4.7854    24
 4.7979    19
 4.8104    26
 4.8229    39
 4.8354    23
 4.8479    16
 4.8604    23
 4.8729    27
 4.8854    32
 4.8979    26
 4.9104    27
 4.9229    29
 4.9355    35
  4.948    28
 4.9605    16
  4.973    20
 4.9855    25
  4.998    34
 5.0105    26
  5.023    24
 5.0355    25
  5.048    20
 5.0605    21
  5.073    23
 5.0855    18
 5.0981    17
 5.1106    16
 5.1231    18
 5.1356    16
 5.1481    17
 5.1606    21
 5.1731    29
 5.1856    27
 5.1981    19
 5.2106    15
 5.2231    21
 5.2356    12
 5.2481    20
 5.2606    20
 5.2732    22
 5.2857    22
 5.2982    21
 5.3107    21
 5.3232    22
 5.3357    22
 5.3482    20
 5.3607    27
 5.3732    22
 5.3857    20
 5.3982    16
 5.4107    29
 5.4232    20
 5.4357    20
 5.4483    11
 5.4608    24
 5.4733    23
 5.4858    23
 5.4983    19
 5.5108    27
 5.5233    26
 5.5358    20
 5.5483    21
 5.5608    27
 5.5733    18
 5.5858    31
 5.5983    22
 5.6108    19
 5.6234    23
 5.6359    15
 5.6484    23
 5.6609    21
 5.6734    23
 5.6859    23
 5.6984    31
 5.7109    21
 5.7234    17
 5.7359    22
 5.7484    29
 5.7609    21
 5.7734    27
  5.786    18
 5.7985    21
  5.811    28
 5.8235    28
  5.836    20
 5.8485    28
  5.861    26
 5.8735    39
  5.886    38
 5.8985    41
  5.911    23
 5.9235    37
  5.936    34
 5.9485    17
 5.9611    23
 5.9736    17
 5.9861    30
 5.9986    27
 6.0111    24
 6.0236    28
 6.0361    25
 6.0486    22
 6.0611    24
 6.0736    28
 6.0861    20
 6.0986    20
 6.1111    17
 6.1236    26
 6.1362    21
 6.1487    26
 6.1612    20
 6.1737    32
 6.1862    29
 6.1987    22
 6.2112    25
 6.2237    29
 6.2362    34
 6.2487    36
 6.2612    44
 6.2737    37
 6.2862    39
 6.2988    55
 6.3113    67
 6.3238    79
 6.3363    89
 6.3488   137
 6.3613   130
 6.3738   140
 6.3863   161
 6.3988   162
 6.4113   137
 6.4238   142
 6.4363   148
 6.4488   146
 6.4613   113
 6.4739   117
 6.4864    93
 6.4989    77
 6.5114    72
 6.5239    45
 6.5364    42
 6.5489    34
 6.5614    38
 6.5739    35
 6.5864    30
 6.5989    40
 6.6114    32
 6.6239    31
 6.6364    35
  6.649    24
 6.6615    26
  6.674    42
 6.6865    28
  6.699    32
 6.7115    38
  6.724    43
 6.7365    33
  6.749    34
 6.7615    35
  6.774    37
 6.7865    30
  6.799    34
 6.8115    36
 6.8241    36
 6.8366    35
 6.8491    31
 6.8616    38
 6.8741    33
 6.8866    45
 6.8991    46
 6.9116    33
 6.9241    41
 6.9366    52
 6.9491    39
 6.9616    49
 6.9741    36
 6.9867    49
 6.9992    53
 7.0117    81
 7.0242    59
 7.0367    41
 7.0492    52
 7.0617    49
 7.0742    42
 7.0867    57
 7.0992    59
 7.1117    45
 7.1242    46
 7.1367    46
 7.1492    44
 7.1618    41
 7.1743    49
 7.1868    32
 7.1993    46
 7.2118    32
 7.2243    45
 7.2368    36
 7.2493    52
 7.2618    36
 7.2743    38
 7.2868    53
 7.2993    47
 7.3118    61
 7.3243    50
 7.3369    62
 7.3494    66
 7.3619    61
 7.3744    76
 7.3869    67
 7.3994    62
 7.4119    76
 7.4244    90
 7.4369    69
 7.4494    71
 7.4619    67
 7.4744    67
 7.4869    50
 7.4994    54
  7.512    60
 7.5245    45
  7.537    45
 7.5495    54
  7.562    61
 7.5745    44
  7.587    52
 7.5995    41
  7.612    40
 7.6245    62
  7.637    43
 7.6495    38
  7.662    54
 7.6746    53
 7.6871    54
 7.6996    50
 7.7121    51
 7.7246    48
 7.7371    66
 7.7496    51
 7.7621    53
 7.7746    59
 7.7871    50
 7.7996    77
 7.8121    48
 7.8246    57
 7.8371    70
 7.8497    61
 7.8622    61
 7.8747    66
 7.8872    67
 7.8997    83
 7.9122    81
 7.9247   101
 7.9372   106
 7.9497   116
 7.9622   112
 7.9747   132
 7.9872   137
 7.9997   160
 8.0122   175
 8.0248   196
 8.0373   197
 8.0498   191
 8.0623   162
 8.0748   211
 8.0873   197
 8.0998   167
 8.1123   191
 8.1248   181
 8.1373   170
 8.1498   173
 8.1623   185
 8.1748   205
 8.1873   195
 8.1999   184
 8.2124   221
 8.2249   215
 8.2374   226
 8.2499   271
 8.2624   291
 8.2749   385
 8.2874   427
 8.2999   479
 8.3124   580
 8.3249   635
 8.3374   727
 8.3499   734
 8.3625   932
  8.375   933
 8.3875   937
    8.4   957
 8.4125   918
  8.425   817
 8.4375   812
   8.45   718
 8.4625   615
  8.475   534
 8.4875   387
    8.5   372
 8.5125   269
  8.525   226
 8.5376   172
 8.5501   160
 8.5626   125
 8.5751   105
 8.5876    96
 8.6001    95
 8.6126   110
 8.6251    87
 8.6376    85
 8.6501    87
 8.6626    84
 8.6751    92
 8.6876    73
 8.7001    78
 8.7127    79
 8.7252    90
 8.7377    88
 8.7502    88
 8.7627    96
 8.7752    94
 8.7877    86
 8.8002   102
 8.8127    89
 8.8252    82
 8.8377    88
 8.8502    90
 8.8627    68
 8.8752    99
 8.8878    87
 8.9003    92
 8.9128    82
 8.9253    90
 8.9378    90
 8.9503    93
 8.9628    91
 8.9753    96
 8.9878   110
 9.0003    94
 9.0128    99
 9.0253   135
 9.0378   149
 9.0504   169
 9.0629   180
 9.0754   212
 9.0879   227
 9.1004   322
 9.1129   334
 9.1254   385
 9.1379   410
 9.1504   468
 9.1629   487
 9.1754   463
 9.1879   478
 9.2004   490
 9.2129   493
 9.2255   454
  9.238   447
 9.2505   432
  9.263   359
 9.2755   330
  9.288   317
 9.3005   266
  9.313   255
 9.3255   216
  9.338   218
 9.3505   244
  9.363   201
 9.3755   199
  9.388   200
 9.4006   172
 9.4131   200
 9.4256   249
 9.4381   219
 9.4506   224
 9.4631   240
 9.4756   238
 9.4881   261
 9.5006   281
 9.5131   312
 9.5256   327
 9.5381   346
 9.5506   370
 9.5631   406
 9.5757   457
 9.5882   463
 9.6007   561
 9.6132   581
 9.6257   613
 9.6382   631
 9.6507   681
 9.6632   630
 9.6757   649
 9.6882   690
 9.7007   613
 9.7132   598
 9.7257   570
 9.7383   509
 9.7508   446
 9.7633   437
 9.7758   387
 9.7883   378
 9.8008   313
 9.8133   281
 9.8258   301
 9.8383   294
 9.8508   273
 9.8633   302
 9.8758   312
 9.8883   362
 9.9008   311
 9.9134   354
 9.9259   353
 9.9384   380
 9.9509   338
 9.9634   370
 9.9759   368
 9.9884   337
10.0009   310
10.0134   301
10.0259   270
10.0384   229
10.0509   214
10.0634   179
10.0759   179
10.0885   169
 10.101   130
10.1135   117
 10.126    99
10.1385   128
 10.151   101
10.1635   103
 10.176    90
10.1885   106
 10.201   106
10.2135   122
 10.226   108
10.2385   117
 10.251   152
10.2636   155
10.2761   176
10.2886   227
10.3011   281
10.3136   363
10.3261   444
10.3386   597
10.3511   778
10.3636  1014
10.3761  1291
10.3886  1588
10.4011  1982
10.4136  2444
10.4262  2996
10.4387  3488
10.4512  4161
10.4637  4843
10.4762  5587
10.4887  6224
10.5012  6740
10.5137  7201
10.5262  7526
10.5387  7682
10.5512  7482
10.5637  7375
10.5762  7140
10.5887  6394
10.6013  5915
10.6138  5104
10.6263  4318
10.6388  3753
10.6513  3026
10.6638  2396
10.6763  1888
10.6888  1443
10.7013  1165
10.7138   846
10.7263   607
10.7388   426
10.7513   309
10.7638   271
10.7764   208
10.7889   144
10.8014   144
10.8139   120
10.8264    94
10.8389    97
10.8514    80
10.8639    83
10.8764    67
10.8889    86
10.9014    75
10.9139    72
10.9264    71
10.9389    89
10.9515    76
 10.964    65
10.9765    66
 10.989    72
11.0015    62
 11.014    57
11.0265    72
 11.039    45
11.0515    60
 11.064    63
11.0765    69
 11.089    70
11.1015    58
11.1141    68
11.1266    62
11.1391    61
11.1516    71
11.1641    91
11.1766    91
11.1891   107
11.2016    95
11.2141   132
11.2266   135
11.2391   143
11.2516   164
11.2641   176
11.2766   195
11.2892   176
11.3017   216
11.3142   194
11.3267   204
11.3392   225
11.3517   196
11.3642   198
11.3767   155
11.3892   160
11.4017   190
11.4142   143
11.4267   118
11.4392   109
11.4517   108
11.4643    65
11.4768    88
11.4893    68
11.5018    68
11.5143    84
11.5268    59
11.5393    74
11.5518    56
11.5643    57
11.5768    54
11.5893    68
11.6018    62
11.6143    58
11.6268    38
11.6394    62
11.6519    60
11.6644    49
11.6769    69
11.6894    50
11.7019    51
11.7144    69
11.7269    53
11.7394    39
11.7519    50
11.7644    42
11.7769    42
11.7894    43
 11.802    43
11.8145    46
 11.827    69
11.8395    48
 11.852    46
11.8645    56
 11.877    36
11.8895    48
 11.902    60
11.9145    44
 11.927    58
11.9395    62
 11.952    83
11.9645    71
11.9771    78
11.9896    63
12.0021    78
12.0146   113
12.0271    88
12.0396   119
12.0521   122
12.0646   135
12.0771   165
12.0896   177
12.1021   200
12.1146   205
12.1271   192
12.1396   258
12.1522   251
12.1647   244
12.1772   265
12.1897   321
12.2022   330
12.2147   344
12.2272   350
12.2397   382
12.2522   368
12.2647   402
12.2772   422
12.2897   409
12.3022   408
12.3147   400
12.3273   410
12.3398   408
12.3523   392
12.3648   416
12.3773   386
12.3898   497
12.4023   528
12.4148   596
12.4273   734
12.4398   890
12.4523  1144
12.4648  1416
12.4773  1743
12.4899  2153
12.5024  2642
12.5149  2943
12.5274  3497
12.5399  4012
12.5524  4440
12.5649  4746
12.5774  5067
12.5899  5571
12.6024  5373
12.6149  5500
12.6274  5230
12.6399  5036
12.6524  4744
 12.665  4226
12.6775  3777
  12.69  3436
12.7025  2978
 12.715  2500
12.7275  2142
  12.74  1782
12.7525  1527
 12.765  1336
12.7775  1071
  12.79   886
12.8025   788
 12.815   667
12.8275   577
12.8401   505
12.8526   409
12.8651   383
12.8776   339
12.8901   304
12.9026   289
12.9151   269
12.9276   243
12.9401   262
12.9526   230
12.9651   245
12.9776   228
12.9901   259
13.0026   216
13.0152   246
13.0277   249
13.0402   229
13.0527   209
13.0652   177
13.0777   179
13.0902   158
13.1027   138
13.1152   123
13.1277    99
13.1402   101
13.1527    83
13.1652    68
13.1778    64
13.1903    62
13.2028    59
13.2153    47
13.2278    53
13.2403    42
13.2528    37
13.2653    37
13.2778    54
13.2903    43
13.3028    40
13.3153    42
13.3278    36
13.3403    35
13.3529    31
13.3654    41
13.3779    34
13.3904    32
13.4029    29
13.4154    39
13.4279    39
13.4404    28
13.4529    26
13.4654    23
13.4779    16
13.4904    23
13.5029    24
13.5154    20
 13.528     9
13.5405    13
 13.553    19
13.5655    18
 13.578    17
13.5905    17
 13.603    15
13.6155    15
 13.628    14
13.6405    17
 13.653    17
13.6655    23
 13.678    20
13.6905    11
13.7031    18
13.7156    19
13.7281    24
13.7406    10
13.7531    23
13.7656    18
13.7781    22
13.7906    16
13.8031    21
13.8156    19
13.8281    18
13.8406    19
13.8531    17
13.8657    19
13.8782    20
13.8907    14
13.9032    22
13.9157    25
13.9282    21
13.9407    21
13.9532    22
13.9657    19
13.9782    19
13.9907    20
14.0032    26
14.0157    23
14.0282    26
14.0408    30
14.0533    19
14.0658    25
14.0783    22
14.0908    26
14.1033    28
14.1158    24
14.1283    27
14.1408    35
14.1533    28
14.1658    32
14.1783    38
14.1908    33
14.2033    28
14.2159    25
14.2284    36
14.2409    45
14.2534    45
14.2659    33
14.2784    39
14.2909    49
14.3034    35
14.3159    33
14.3284    38
14.3409    33
14.3534    38
14.3659    41
14.3784    32
 14.391    35
14.4035    28
 14.416    36
14.4285    33
 14.441    31
14.4535    26
 14.466    38
14.4785    44
 14.491    31
14.5035    49
 14.516    47
14.5285    65
 14.541    80
14.5536    85
14.5661   111
14.5786   150
14.5911   145
14.6036   207
14.6161   235
14.6286   253
14.6411   338
14.6536   330
14.6661   402
14.6786   467
14.6911   493
14.7036   574
14.7161   550
14.7287   553
14.7412   595
14.7537   611
14.7662   578
14.7787   550
14.7912   510
14.8037   497
14.8162   455
14.8287   349
14.8412   327
14.8537   310
14.8662   252
14.8787   214
14.8912   169
14.9038   157
14.9163   132
14.9288   125
14.9413    99
14.9538    83
14.9663    96
14.9788   102
14.9913   104
15.0038   104
15.0163   113
15.0288   126
15.0413   117
15.0538   147
15.0663   150
15.0789   184
15.0914   148
15.1039   197
15.1164   196
15.1289   174
15.1414   174
15.1539   192
15.1664   199
15.1789   168
15.1914   171
15.2039   149
15.2164   164
15.2289   166
15.2415   132
 15.254   123
15.2665   106
 15.279    97
15.2915    80
 15.304    72
15.3165    60
 15.329    52
15.3415    40
 15.354    33
15.3665    29
 15.379    21
15.3915    17
 15.404    22
15.4166    22
15.4291    18
15.4416    29
15.4541    23
15.4666    16
15.4791    20
15.4916    26
15.5041    13
15.5166    21
15.5291    15
15.5416    17
15.5541    23
15.5666    24
15.5791    13
15.5917    23
15.6042    27
15.6167    24
15.6292    31
15.6417    30
15.6542    25
15.6667    32
15.6792    24
15.6917    43
15.7042    33
15.7167    53
15.7292    38
15.7417    47
15.7542    47
15.7668    45
15.7793    43
15.7918    38
15.8043    33
15.8168    34
15.8293    35
15.8418    17
15.8543    18
15.8668    26
15.8793    23
15.8918    27
15.9043    20
15.9168    11
15.9294     5
15.9419    11
15.9544    14
15.9669    20
15.9794    22
15.9919    12
16.0044    11
16.0169    15
16.0294     7
16.0419    14
16.0544    13
16.0669    14
16.0794     6
16.0919     9
16.1045     8
 16.117    12
16.1295    13
 16.142    13
16.1545    12
 16.167     7
16.1795    11
 16.192     7
16.2045    15
 16.217    12
16.2295    15
 16.242     9
16.2545    11
 16.267    13
16.2796    10
16.2921     8
16.3046     9
16.3171    13
16.3296     6
16.3421    10
16.3546    11
16.3671    18
16.3796    15
16.3921     9
16.4046    12
16.4171     6
16.4296    10
16.4421     8
16.4547     8
16.4672    12
16.4797    11
16.4922    11
16.5047    11
16.5172    14
16.5297     7
16.5422    12
16.5547    11
16.5672    17
16.5797    10
16.5922    11
16.6047    10
16.6173     5
16.6298    12
16.6423     9
16.6548    11
16.6673    10
16.6798    12
16.6923    11
16.7048    12
16.7173    11
16.7298     7
16.7423    12
16.7548    22
16.7673    11
16.7798    13
16.7924    11
16.8049    13
16.8174    13
16.8299    18
16.8424     9
16.8549    15
16.8674    12
16.8799    13
16.8924    18
16.9049    11
16.9174    10
16.9299    15
16.9424     8
16.9549    12
16.9675    11
  16.98    17
16.9925    12
 17.005    15
17.0175     9
  17.03     9
17.0425    16
 17.055     6
17.0675     9
  17.08    11
17.0925    12
 17.105    10
17.1175    16
  17.13    16
17.1426    17
17.1551    15
17.1676    10
17.1801    15
17.1926    17
17.2051     7
17.2176    13
17.2301    11
17.2426    10
17.2551    12
17.2676    11
17.2801    14
17.2926    10
17.3052    16
17.3177    13
17.3302    19
17.3427    15
17.3552    12
17.3677    13
17.3802     8
17.3927    13
17.4052    13
17.4177    11
17.4302     7
17.4427     7
17.4552     9
17.4677    13
17.4803    13
17.4928    11
17.5053    11
17.5178    14
17.5303    11
17.5428    19
17.5553    10
17.5678    17
17.5803     8
17.5928    14
17.6053    14
17.6178    17
17.6303     9
17.6428     8
17.6554    14
17.6679     7
17.6804     9
17.6929     8
17.7054    17
17.7179    17
17.7304    18
17.7429     9
17.7554    10
17.7679    11
17.7804     8
17.7929    16
17.8054     9
17.8179    10
17.8305    10
 17.843    11
17.8555     7
 17.868    10
17.8805    11
 17.893     9
17.9055    13
 17.918     6
17.9305     8
 17.943    11
17.9555     6
 17.968    12
17.9805     6
17.9931    14
18.0056    19
18.0181     6
18.0306    11
18.0431    10
18.0556    11
18.0681    15
18.0806     7
18.0931    14
18.1056    15
18.1181    15
18.1306    13
18.1431    12
18.1556    14
18.1682    15
18.1807    11
18.1932     9
18.2057     7
18.2182    11
18.2307    19
18.2432     9
18.2557     9
18.2682    10
18.2807    11
18.2932     6
18.3057     8
18.3182    13
18.3307    11
18.3433     8
18.3558     7
18.3683     4
18.3808    12
18.3933    12
18.4058    10
18.4183    11
18.4308    11
18.4433     7
18.4558     8
18.4683     8
18.4808     8
18.4933     8
18.5058     6
18.5184    11
18.5309    13
18.5434    10
18.5559     5
18.5684     9
18.5809     8
18.5934     9
18.6059     8
18.6184     8
18.6309    13
18.6434    11
18.6559     5
18.6684     7
 18.681    13
18.6935    10
 18.706    15
18.7185     5
 18.731     9
18.7435     7
 18.756     7
18.7685    13
 18.781     9
18.7935     6
 18.806    12
18.8185     9
 18.831     6
18.8435    10
18.8561    10
18.8686     8
18.8811    11
18.8936     9
18.9061    16
18.9186     6
18.9311     8
18.9436    10
18.9561    12
18.9686     5
18.9811    11
18.9936     7
19.0061     4
19.0186    13
19.0312    13
19.0437     6
19.0562    15
19.0687     5
19.0812    12
19.0937    18
19.1062     6
19.1187     6
19.1312     7
19.1437    10
19.1562    10
19.1687    11
19.1812     7
19.1937    11
19.2063    13
19.2188    10
19.2313    10
19.2438     7
19.2563    18
19.2688    10
19.2813     8
19.2938    18
19.3063    17
19.3188    12
19.3313    12
19.3438     8
19.3563     9
19.3689     6
19.3814    13
19.3939     8
19.4064     7
19.4189    10
19.4314    11
19.4439     5
19.4564    15
19.4689     9
19.4814     6
19.4939    10
19.5064     4
19.5189     8
19.5314     7
 19.544    13
19.5565     7
 19.569     8
19.5815    13
 19.594     5
19.6065    11
 19.619    14
19.6315    10
 19.644     5
19.6565     9
 19.669     7
19.6815    14
 19.694     6
19.7065     4
19.7191     7
19.7316     7
19.7441    13
19.7566     6
19.7691     6
19.7816     7
19.7941     4
19.8066     7
19.8191     9
19.8316     5
19.8441    13
19.8566     7
19.8691    17
19.8816    15
19.8942    12
19.9067    11
19.9192    10
19.9317    13
19.9442    11
19.9567     8
19.9692    11
19.9817    13
19.9942     8
20.0067     8
20.0192     8
20.0317    12
20.0442    12
20.0568     7
20.0693     9
20.0818     9
20.0943     6
20.1068    10
20.1193     5
20.1318    14
20.1443    10
20.1568    10
20.1693    10
20.1818    12
20.1943     6
20.2068     7
20.2193    10
20.2319     6
20.2444     6
20.2569     6
20.2694     3
20.2819    10
20.2944     6
20.3069     8
20.3194    10
20.3319     8
20.3444     5
20.3569     5
20.3694    12
20.3819     9
20.3944     8
 20.407     5
20.4195     6
 20.432    10
20.4445    10
 20.457    11
20.4695    12
 20.482     9
20.4945     7
 20.507     7
20.5195     3
 20.532    10
20.5445     6
 20.557     6
20.5695     9
20.5821     8
20.5946     6
20.6071     7
20.6196     4
20.6321     8
20.6446     8
20.6571     1
20.6696     7
20.6821     7
20.6946     9
20.7071     9
20.7196     7
20.7321     4
20.7447     6
20.7572    14
20.7697     4
20.7822     7
20.7947     8
20.8072     5
20.8197     7
20.8322    12
20.8447     6
20.8572    13
20.8697     6
20.8822     7
20.8947     7
20.9072    19
20.9198    13
20.9323     8
20.9448    10
20.9573     6
20.9698     9
20.9823    12
20.9948    14
21.0073    10
21.0198     9
21.0323    11
21.0448     7
21.0573     6
21.0698     9
21.0823     6
21.0949     5
21.1074     8
21.1199    10
21.1324     8
21.1449     7
21.1574    10
21.1699     9
21.1824     6
21.1949    10
21.2074     7
21.2199    11
21.2324    11
21.2449     6
21.2574     6
  21.27     7
21.2825     9
 21.295     5
21.3075     6
  21.32     9
21.3325     9
 21.345     6
21.3575     5
  21.37    11
21.3825     9
 21.395     8
21.4075     6
  21.42     8
21.4326     3
21.4451    10
21.4576     6
21.4701     8
21.4826     6
21.4951     9
21.5076     6
21.5201     5
21.5326    12
21.5451     7
21.5576     7
21.5701    11
21.5826     7
21.5951     9
21.6077     7
21.6202     3
21.6327     9
21.6452     6
21.6577    11
21.6702     4
21.6827     7
21.6952     8
21.7077     7
21.7202     7
21.7327    12
21.7452     7
21.7577    10
21.7702     6
21.7828     6
21.7953     9
21.8078     5
21.8203     9
21.8328     6
21.8453     2
21.8578     4
21.8703     8
21.8828     5
21.8953     6
21.9078     8
21.9203    10
21.9328     7
21.9453    12
21.9579    10
21.9704    12
21.9829     8
21.9954    10
22.0079    12
22.0204     9
22.0329     9
22.0454     7
22.0579     6
22.0704    14
22.0829     7
22.0954     8
22.1079     5
22.1205     3
 22.133     9
22.1455     8
 22.158     6
22.1705    11
 22.183    12
22.1955     6
 22.208     6
22.2205     7
 22.233     3
22.2455     5
 22.258     9
22.2705     4
 22.283     7
22.2956    10
22.3081     4
22.3206     8
22.3331     5
22.3456     3
22.3581     4
22.3706     7
22.3831     7
22.3956     7
22.4081     7
22.4206     4
22.4331    13
22.4456    11
22.4581     8
22.4707     6
22.4832     6
22.4957    10
22.5082     5
22.5207     8
22.5332     5
22.5457     3
22.5582     8
22.5707     4
22.5832     5
22.5957     5
22.6082     9
22.6207     6
22.6332     7
22.6458     4
22.6583     9
22.6708     3
22.6833    12
22.6958     5
22.7083     6
22.7208     5
22.7333     7
22.7458     5
22.7583     8
22.7708     7
22.7833     2
22.7958     7
22.8084     6
22.8209     7
22.8334     6
22.8459     3
22.8584     6
22.8709     3
22.8834     5
22.8959     6
22.9084     7
22.9209     6
22.9334     9
22.9459     7
22.9584     4
22.9709    10
22.9835     8
 22.996     7
23.0085     6
 23.021     3
23.0335     5
 23.046    10
23.0585     9
 23.071     6
23.0835     4
 23.096     7
23.1085     8
 23.121     4
23.1335     6
 23.146     9
23.1586     8
23.1711     4
23.1836    10
23.1961    10
23.2086    11
23.2211     5
23.2336    11
23.2461     6
23.2586     4
23.2711     5
23.2836    10
23.2961     5
23.3086     3
23.3211     5
23.3337     9
23.3462     7
23.3587     7
23.3712     6
23.3837     6
23.3962     6
23.4087    11
23.4212     5
23.4337     3
23.4462    10
23.4587     4
23.4712    11
23.4837     6
23.4963     5
23.5088     8
23.5213     7
23.5338     3
23.5463     7
23.5588     5
23.5713     9
23.5838     4
23.5963     3
23.6088     3
23.6213     4
23.6338     7
23.6463     6
23.6588     5
23.6714     5
23.6839     8
23.6964     5
23.7089     2
23.7214     8
23.7339     2
23.7464     5
23.7589     4
23.7714     4
23.7839     9
23.7964     8
23.8089     5
23.8214     4
23.8339     6
23.8465     3
 23.859     9
23.8715     3
 23.884     6
23.8965     4
 23.909     4
23.9215     4
 23.934     9
23.9465     7
 23.959     4
23.9715     6
 23.984     5
23.9965     5
 24.009     3
24.0216     7
24.0341     4
24.0466     4
24.0591     4
24.0716     4
24.0841     7
24.0966     8
24.1091     6
24.1216     5
24.1341     3
24.1466     5
24.1591     4
24.1716     8
24.1842     4
24.1967     7
24.2092     6
24.2217     6
24.2342     6
24.2467     4
24.2592     7
24.2717     4
24.2842     4
24.2967     4
24.3092     2
24.3217     4
24.3342     5
24.3467     4
24.3593    10
24.3718     3
24.3843     2
24.3968     2
24.4093     2
24.4218     1
24.4343     3
24.4468     6
24.4593     4
24.4718     5
24.4843     4
24.4968     2
24.5093     5
24.5218     7
24.5344     2
24.5469     8
24.5594     6
24.5719     4
24.5844     4
24.5969     2
24.6094     7
24.6219     3
24.6344     5
24.6469     4
24.6594     8
24.6719     3
24.6844     4
24.6969     2
24.7095     8
 24.722     2
24.7345     7
 24.747     5
24.7595     1
 24.772     5
24.7845     5
 24.797     5
24.8095     4
 24.822     2
24.8345     7
 24.847     5
24.8595     4
24.8721     7
24.8846     5
24.8971     3
24.9096     6
24.9221     9
24.9346    11
24.9471    11
24.9596     6
24.9721    10
24.9846     9
24.9971     1
25.0096     8
25.0221     8
25.0346     2
25.0472     9
25.0597     7
25.0722     5
25.0847     8
25.0972     6
25.1097     9
25.1222     3
25.1347     2
25.1472     5
25.1597     7
25.1722     5
25.1847     5
25.1972     9
25.2097     5
25.2223     5
25.2348     5
25.2473     5
25.2598     3
25.2723     5
25.2848     6
25.2973     2
25.3098     7
25.3223     3
25.3348     5
25.3473     3
25.3598     4
25.3723     6
25.3848     5
25.3974     4
25.4099     6
25.4224     5
25.4349     3
25.4474     4
25.4599     9
25.4724     5
25.4849     3
25.4974     9
25.5099     4
25.5224     7
25.5349     4
25.5474     4
  25.56     3
25.5725     6
 25.585     3
25.5975     1
  25.61     5
25.6225     6
 25.635     9
25.6475     6
  25.66     5
25.6725     5
 25.685     3
25.6975     2
  25.71     2
25.7225     5
25.7351     6
25.7476     1
25.7601     5
25.7726     2
25.7851     4
25.7976     6
25.8101     6
25.8226     6
25.8351     2
25.8476     5
25.8601     7
25.8726     4
25.8851     5
25.8976     8
25.9102     7
25.9227     2
25.9352     5
25.9477     6
25.9602     3
25.9727     7
25.9852     5
25.9977     3
26.0102     4
26.0227     4
26.0352     1
26.0477     3
26.0602     6
26.0727     8
26.0853     3
26.0978     2
26.1103     7
26.1228     5
26.1353     3
26.1478     9
26.1603     4
26.1728     0
26.1853     4
26.1978     4
26.2103     3
26.2228     5
26.2353     5
26.2479     9
26.2604     1
26.2729     4
26.2854     5
26.2979     2
26.3104     4
26.3229     3
26.3354     3
26.3479     4
26.3604     6
26.3729     2
26.3854     4
26.3979     5
26.4104     3
 26.423     5
26.4355     4
 26.448     2
26.4605     2
 26.473     6
26.4855     3
 26.498     3
26.5105     6
 26.523     6
26.5355     3
 26.548     3
26.5605     5
 26.573     2
26.5855     3
26.5981     3
26.6106     6
26.6231     2
26.6356     3
26.6481     4
26.6606     6
26.6731     4
26.6856     2
26.6981     4
26.7106     2
26.7231     1
26.7356     1
26.7481     1
26.7606     4
26.7732     7
26.7857     5
26.7982     5
26.8107     0
26.8232     3
26.8357     3
26.8482     5
26.8607     4
26.8732     4
26.8857     4
26.8982     4
26.9107     3
26.9232     3
26.9358     7
26.9483     5
26.9608     3
26.9733     4
26.9858     6
26.9983     3
27.0108     8
27.0233     2
27.0358     4
27.0483     2
27.0608     3
27.0733     6
27.0858     1
27.0983     6
27.1109     6
27.1234     2
27.1359     3
27.1484     4
27.1609     0
27.1734     3
27.1859     4
27.1984     4
27.2109     5
27.2234     4
27.2359     1
27.2484     4
27.2609     4
27.2734     1
 27.286     4
27.2985     2
 27.311     3
27.3235     1
 27.336     6
27.3485     1
 27.361     3
27.3735     4
 27.386     2
27.3985     4
 27.411     3
27.4235     2
 27.436     5
27.4485     4
27.4611     3
27.4736     1
27.4861     4
27.4986     0
27.5111     0
27.5236     2
27.5361     6
27.5486     1
27.5611     3
27.5736     1
27.5861     2
27.5986     3
27.6111     3
27.6237     3
27.6362     2
27.6487     1
27.6612     3
27.6737     3
27.6862     3
27.6987     2
27.7112     3
27.7237     2
27.7362     3
27.7487     4
27.7612     1
27.7737     2
27.7862     5
27.7988     1
27.8113     3
27.8238     2
27.8363     3
27.8488     4
27.8613     0
27.8738     3
27.8863     5
27.8988     1
27.9113     4
27.9238     4
27.9363     4
27.9488     3
27.9613     5
27.9739     3
27.9864     1
27.9989     6
28.0114     1
28.0239     2
28.0364     3
28.0489     5
28.0614     1
28.0739     5
28.0864     5
28.0989     3
28.1114     4
28.1239     1
28.1364     4
 28.149     0
28.1615     7
 28.174     5
28.1865     5
 28.199     2
28.2115     2
 28.224     3
28.2365     2
 28.249     5
28.2615     3
 28.274     2
28.2865     1
 28.299     4
28.3116     2
28.3241     0
28.3366     2
28.3491     1
28.3616     2
28.3741     1
28.3866     5
28.3991     5
28.4116     2
28.4241     6
28.4366     4
28.4491     4
28.4616     1
28.4741     6
28.4867     5
28.4992     4
28.5117     4
28.5242     0
28.5367     1
28.5492     2
28.5617     2
28.5742     5
28.5867     3
28.5992     2
28.6117     2
28.6242     4
28.6367     3
28.6492     0
28.6618     3
28.6743     4
28.6868     2
28.6993     2
28.7118     3
28.7243     1
28.7368     4
28.7493     1
28.7618     4
28.7743     3
28.7868     1
28.7993     5
28.8118     0
28.8243     1
28.8369     1
28.8494     2
28.8619     2
28.8744     5
28.8869     1
28.8994     2
28.9119     2
28.9244     3
28.9369     5
28.9494     3
28.9619     6
28.9744     0
28.9869     3
28.9995     1
 29.012     3
29.0245     5
 29.037     2
29.0495     3
 29.062     2
29.0745     2
 29.087     3
29.0995     3
 29.112     3
29.1245     0
 29.137     3
29.1495     2
 29.162     2
29.1746     0
29.1871     1
29.1996     4
29.2121     2
29.2246     3
29.2371     1
29.2496     0
29.2621     3
29.2746     1
29.2871     4
29.2996     2
29.3121     3
29.3246     1
29.3371     2
29.3497     2
29.3622     2
29.3747     1
29.3872     1
29.3997     1
29.4122     0
29.4247     2
29.4372     3
29.4497     4
29.4622     0
29.4747     5
29.4872     3
29.4997     0
29.5123     2
29.5248     3
29.5373     2
29.5498     2
29.5623     1
29.5748     4
29.5873     4
29.5998     5
29.6123     2
29.6248     6
29.6373     3
29.6498     3
29.6623     4
29.6748     3
29.6874     2
29.6999     2
29.7124     4
29.7249     4
29.7374     2
29.7499     5
29.7624     2
29.7749     0
29.7874     3
29.7999     2
29.8124     0
29.8249     3
29.8374     0
29.8499     2
29.8625     1
 29.875     2
29.8875     2
   29.9     4
29.9125     1
 29.925     3
29.9375     2
  29.95     1
29.9625     3
 29.975     3
29.9875     1
     30     3
30.0125     2
 30.025     1
30.0376     1
30.0501     3
30.0626     3
30.0751     3
30.0876     0
30.1001     0
30.1126     2
30.1251     2
30.1376     1
30.1501     4
30.1626     1
30.1751     2
30.1876     2
30.2002     1
30.2127     2
30.2252     3
30.2377     3
30.2502     4
30.2627     4
30.2752     2
30.2877     3
30.3002     2
30.3127     0
30.3252     1
30.3377     1
30.3502     1
30.3627     1
30.3753     1
30.3878     1
30.4003     0
30.4128     2
30.4253     6
30.4378     0
30.4503     3
30.4628     3
30.4753     1
30.4878     1
30.5003     1
30.5128     2
30.5253     4
30.5378     1
30.5504     3
30.5629     5
30.5754     2
30.5879     2
30.6004     2
30.6129     1
30.6254     1
30.6379     2
30.6504     0
30.6629     3
30.6754     0
30.6879     3
30.7004     3
30.7129     4
30.7255     1
 30.738     4
30.7505     2
 30.763     1
30.7755     3
 30.788     1
30.8005     1
 30.813     0
30.8255     4
 30.838     1
30.8505     1
 30.863     4
30.8755     2
30.8881     3
30.9006     0
30.9131     1
30.9256     2
30.9381     1
30.9506     2
30.9631     3
30.9756     1
30.9881     1
31.0006     2
31.0131     0
31.0256     2
31.0381     2
31.0506     0
31.0632     5
31.0757     1
31.0882     0
31.1007     2
31.1132     5
31.1257     1
31.1382     1
31.1507     3
31.1632     2
31.1757     2
31.1882     1
31.2007     2
31.2132     0
31.2257     1
31.2383     3
31.2508     2
31.2633     5
31.2758     4
31.2883     2
31.3008     3
31.3133     1
31.3258     0
31.3383     3
31.3508     4
31.3633     0
31.3758     2
31.3883     2
31.4008     0
31.4134     3
31.4259     1
31.4384     0
31.4509     0
31.4634     2
31.4759     3
31.4884     1
31.5009     3
31.5134     0
31.5259     2
31.5384     2
31.5509     1
31.5634     2
 31.576     2
31.5885     0
 31.601     1
31.6135     2
 31.626     2
31.6385     3
 31.651     0
31.6635     2
 31.676     2
31.6885     3
 31.701     0
31.7135     1
 31.726     1
31.7385     4
31.7511     0
31.7636     5
31.7761     1
31.7886     0
31.8011     3
31.8136     1
31.8261     1
31.8386     1
31.8511     0
31.8636     1
31.8761     0
31.8886     2
31.9011     3
31.9136     2
31.9262     1
31.9387     2
31.9512     1
31.9637     0
31.9762     4
31.9887     1
32.0012     0
32.0137     3
32.0262     3
32.0387     1
32.0512     1
32.0637     1
32.0762     1
32.0887     1
32.1013     5
32.1138     1
32.1263     2
32.1388     0
32.1513     3
32.1638     1
32.1763     2
32.1888     1
32.2013     1
32.2138     3
32.2263     3
32.2388     3
32.2513     1
32.2639     1
32.2764     4
32.2889     3
32.3014     1
32.3139     0
32.3264     0
32.3389     4
32.3514     1
32.3639     2
32.3764     3
32.3889     2
32.4014     1
32.4139     2
32.4264     0
 32.439     3
32.4515     0
 32.464     0
32.4765     2
 32.489     4
32.5015     3
 32.514     0
32.5265     1
 32.539     2
32.5515     0
 32.564     1
32.5765     1
 32.589     1
32.6015     1
32.6141     0
32.6266     0
32.6391     0
32.6516     0
32.6641     0
32.6766     1
32.6891     0
32.7016     2
32.7141     1
32.7266     5
32.7391     1
32.7516     4
32.7641     0
32.7766     0
32.7892     2
32.8017     0
32.8142     0
32.8267     1
32.8392     1
32.8517     5
32.8642     2
32.8767     1
32.8892     1
32.9017     3
32.9142     3
32.9267     0
32.9392     1
32.9518     0
32.9643     2
32.9768     1
32.9893     0
33.0018     0
33.0143     1
33.0268     1
33.0393     0
33.0518     2
33.0643     2
33.0768     1
33.0893     0
33.1018     3
33.1143     3
33.1269     0
33.1394     0
33.1519     0
33.1644     1
33.1769     1
33.1894     3
33.2019     0
33.2144     2
33.2269     3
33.2394     1
33.2519     0
33.2644     1
33.2769     1
33.2894     0
 33.302     2
33.3145     0
 33.327     1
33.3395     2
 33.352     0
33.3645     2
 33.377     0
33.3895     2
 33.402     0
33.4145     2
 33.427     1
33.4395     1
 33.452     1
33.4645     2
33.4771     0
33.4896     2
33.5021     0
33.5146     2
33.5271     2
33.5396     2
33.5521     2
33.5646     0
33.5771     1
33.5896     1
33.6021     0
33.6146     0
33.6271     2
33.6397     2
33.6522     3
33.6647     1
33.6772     0
33.6897     0
33.7022     0
33.7147     0
33.7272     1
33.7397     1
33.7522     1
33.7647     1
33.7772     1
33.7897     0
33.8022     1
33.8148     1
33.8273     1
33.8398     2
33.8523     1
33.8648     2
33.8773     0
33.8898     3
33.9023     2
33.9148     1
33.9273     1
33.9398     2
33.9523     2
33.9648     0
33.9773     2
33.9899     2
34.0024     1
34.0149     2
34.0274     7
34.0399     1
34.0524     0
34.0649     3
34.0774     0
34.0899     1
34.1024     0
34.1149     2
34.1274     0
34.1399     1
34.1524     0
 34.165     2
34.1775     0
  34.19     2
34.2025     1
 34.215     2
34.2275     1
  34.24     3
34.2525     1
 34.265     2
34.2775     4
  34.29     1
34.3025     0
 34.315     0
34.3276     2
34.3401     0
34.3526     0
34.3651     0
34.3776     1
34.3901     0
34.4026     1
34.4151     0
34.4276     1
34.4401     0
34.4526     0
34.4651     1
34.4776     2
34.4901     0
34.5027     0
34.5152     0
34.5277     0
34.5402     3
34.5527     3
34.5652     0
34.5777     0
34.5902     2
34.6027     1
34.6152     0
34.6277     0
34.6402     0
34.6527     0
34.6652     0
34.6778     0
34.6903     1
34.7028     1
34.7153     0
34.7278     0
34.7403     0
34.7528     0
34.7653     2
34.7778     0
34.7903     0
34.8028     1
34.8153     2
34.8278     1
34.8403     0
34.8529     1
34.8654     0
34.8779     2
34.8904     2
34.9029     0
34.9154     0
34.9279     0
34.9404     0
34.9529     1
34.9654     0
34.9779     1
34.9904     0
35.0029     0
35.0155     1
 35.028     0
35.0405     1
 35.053     2
35.0655     1
 35.078     1
35.0905     3
 35.103     1
35.1155     0
 35.128     2
35.1405     1
 35.153     0
35.1655     3
 35.178     0
35.1906     1
35.2031     2
35.2156     0
35.2281     1
35.2406     0
35.2531     3
35.2656     1
35.2781     1
35.2906     2
35.3031     1
35.3156     1
35.3281     2
35.3406     1
35.3531     0
35.3657     0
35.3782     1
35.3907     1
35.4032     0
35.4157     0
35.4282     1
35.4407     1
35.4532     1
35.4657     0
35.4782     0
35.4907     2
35.5032     0
35.5157     1
35.5282     1
35.5408     0
35.5533     2
35.5658     0
35.5783     0
35.5908     1
35.6033     0
35.6158     0
35.6283     2
35.6408     0
35.6533     1
35.6658     0
35.6783     1
35.6908     0
35.7034     1
35.7159     0
35.7284     1
35.7409     0
35.7534     2
35.7659     1
35.7784     0
35.7909     1
35.8034     0
35.8159     2
35.8284     0
35.8409     0
35.8534     2
35.8659     0
35.8785     2
 35.891     0
35.9035     3
 35.916     0
35.9285     0
 35.941     3
35.9535     0
 35.966     1
35.9785     0
 35.991     0
36.0035     0
 36.016     2
36.0285     1
 36.041     2
36.0536     1
36.0661     3
36.0786     1
36.0911     1
36.1036     3
36.1161     1
36.1286     1
36.1411     1
36.1536     0
36.1661     1
36.1786     0
36.1911     0
36.2036     1
36.2161     0
36.2287     3
36.2412     1
36.2537     1
36.2662     0
36.2787     1
36.2912     0
36.3037     0
36.3162     2
36.3287     0
36.3412     0
36.3537     0
36.3662     1
36.3787     1
36.3913     0
36.4038     1
36.4163     0
36.4288     0
36.4413     1
36.4538     0
36.4663     0
36.4788     0
36.4913     0
36.5038     0
36.5163     1
36.5288     0
36.5413     0
36.5538     0
36.5664     1
36.5789     2
36.5914     0
36.6039     2
36.6164     1
36.6289     0
36.6414     2
36.6539     1
36.6664     2
36.6789     0
36.6914     0
36.7039     1
36.7164     0
36.7289     0
36.7415     0
 36.754     0
36.7665     0
 36.779     2
36.7915     0
 36.804     0
36.8165     1
 36.829     1
36.8415     0
 36.854     1
36.8665     1
 36.879     0
36.8915     0
 36.904     0
36.9166     1
36.9291     1
36.9416     0
36.9541     0
36.9666     0
36.9791     1
36.9916     0
37.0041     1
37.0166     0
37.0291     0
37.0416     0
37.0541     0
37.0666     0
37.0792     1
37.0917     0
37.1042     0
37.1167     0
37.1292     0
37.1417     3
37.1542     1
37.1667     0
37.1792     1
37.1917     2
37.2042     1
37.2167     0
37.2292     0
37.2417     1
37.2543     0
37.2668     1
37.2793     0
37.2918     0
37.3043     0
37.3168     0
37.3293     1
37.3418     1
37.3543     2
37.3668     2
37.3793     0
37.3918     1
37.4043     0
37.4168     0
37.4294     0
37.4419     1
37.4544     0
37.4669     0
37.4794     0
37.4919     0
37.5044     0
37.5169     0
37.5294     1
37.5419     2
37.5544     0
37.5669     1
37.5794     0
37.5919     2
37.6045     0
 37.617     0
37.6295     0
 37.642     0
37.6545     1
 37.667     2
37.6795     0
 37.692     1
37.7045     3
 37.717     0
37.7295     0
 37.742     0
37.7545     1
37.7671     0
37.7796     0
37.7921     0
37.8046     0
37.8171     0
37.8296     0
37.8421     0
37.8546     0
37.8671     0
37.8796     1
37.8921     0
37.9046     1
37.9171     2
37.9296     0
37.9422     0
37.9547     1
37.9672     0
37.9797     0
37.9922     0
38.0047     1
38.0172     1
38.0297     0
38.0422     2
38.0547     0
38.0672     0
38.0797     1
38.0922     0
38.1047     0
38.1173     1
38.1298     0
38.1423     1
38.1548     0
38.1673     1
38.1798     2
38.1923     0
38.2048     1
38.2173     0
38.2298     0
38.2423     3
38.2548     1
38.2673     0
38.2798     1
38.2924     0
38.3049     0
38.3174     0
38.3299     0
38.3424     0
38.3549     1
38.3674     0
38.3799     0
38.3924     0
38.4049     1
38.4174     2
38.4299     0
38.4424     0
 38.455     1
38.4675     0
  38.48     0
38.4925     0
 38.505     1
38.5175     0
  38.53     1
38.5425     1
 38.555     0
38.5675     1
  38.58     0
38.5925     0
 38.605     0
38.6175     1
38.6301     0
38.6426     0
38.6551     0
38.6676     0
38.6801     0
38.6926     0
38.7051     0
38.7176     2
38.7301     0
38.7426     0
38.7551     0
38.7676     0
38.7801     0
38.7926     0
38.8052     0
38.8177     0
38.8302     0
38.8427     0
38.8552     0
38.8677     1
38.8802     0
38.8927     0
38.9052     0
38.9177     0
38.9302     0
38.9427     0
38.9552     0
38.9677     0
38.9803     1
38.9928     0
39.0053     0
39.0178     0
39.0303     0
39.0428     0
39.0553     2
39.0678     1
39.0803     0
39.0928     0
39.1053     0
39.1178     0
39.1303     0
39.1429     0
39.1554     0
39.1679     0
39.1804     0
39.1929     0
39.2054     1
39.2179     0
39.2304     0
39.2429     0
39.2554     0
39.2679     0
39.2804     0
39.2929     0
39.3054     0
 39.318     0
39.3305     1
 39.343     0
39.3555     0
 39.368     0
39.3805     0
 39.393     0
39.4055     1
 39.418     1
39.4305     1
 39.443     0
39.4555     0
 39.468     0
39.4805     0
39.4931     0
39.5056     0
39.5181     0
39.5306     0
39.5431     1
39.5556     0
39.5681     0
39.5806     0
39.5931     0
39.6056     0
39.6181     1
39.6306     0
39.6431     1
39.6556     2
39.6682     0
39.6807     0
39.6932     0
39.7057     0
39.7182     0
39.7307     0
39.7432     0
39.7557     0
39.7682     1
39.7807     0
39.7932     0
39.8057     1
39.8182     0
39.8308     0
39.8433     0
39.8558     1
39.8683     2
39.8808     0
39.8933     0
39.9058     0
39.9183     1
39.9308     0
39.9433     0
39.9558     0
39.9683     0
39.9808     0
39.9933     0
40.0059     1
40.0184     0
40.0309     0
40.0434     0
40.0559     0
40.0684     0
40.0809     0
40.0934     0
40.1059     0
40.1184     1
40.1309     1
40.1434     1
40.1559     0
40.1684     0
 40.181     0
40.1935     0
 40.206     0
40.2185     2
 40.231     0
40.2435     0
 40.256     0
40.2685     1
 40.281     0
40.2935     0
 40.306     0
40.3185     1
 40.331     0
40.3435     0
40.3561     0
40.3686     0
40.3811     0
40.3936     0
40.4061     0
40.4186     0
40.4311     0
40.4436     0
40.4561     1
40.4686     1
40.4811     0
40.4936     0
40.5061     0
40.5187     0
40.5312     0
40.5437     0
40.5562     1
40.5687     0
40.5812     0
40.5937     0
40.6062     0
40.6187     0
40.6312     0
40.6437     0
40.6562     0
40.6687     0
40.6812     0
40.6938     0
40.7063     0
40.7188     0
40.7313     0
40.7438     0
40.7563     0
40.7688     0
40.7813     0
40.7938     0
40.8063     0
40.8188     1
40.8313     0
40.8438     0
40.8563     0
40.8689     0
40.8814     0
40.8939     0
40.9064     1
40.9189     0
40.9314     0
40.9439     0
40.9564     0
40.9689     0
40.9814     0
40.9939     0
41.0064     0
41.0189     0
41.0314     0
 41.044     1
41.0565     0
 41.069     0
41.0815     0
 41.094     1
41.1065     0
 41.119     1
41.1315     0
 41.144     0
41.1565     0
 41.169     0
41.1815     0
 41.194     0
41.2066     0
41.2191     0
41.2316     1
41.2441     0
41.2566     0
41.2691     0
41.2816     0
41.2941     0
41.3066     1
41.3191     0
41.3316     0
41.3441     0
41.3566     0
41.3691     0
41.3817     0
41.3942     0
41.4067     0
41.4192     0
41.4317     0
41.4442     0
41.4567     0
41.4692     1
41.4817     0
41.4942     0
41.5067     0
41.5192     0
41.5317     0
41.5442     0
41.5568     0
41.5693     0
41.5818     0
41.5943     1
41.6068     0
41.6193     0
41.6318     0
41.6443     0
41.6568     0
41.6693     0
41.6818     0
41.6943     0
41.7068     0
41.7193     0
41.7319     0
41.7444     0
41.7569     0
41.7694     0
41.7819     0
41.7944     0
41.8069     0
41.8194     0
41.8319     0
41.8444     0
41.8569     0
41.8694     0
41.8819     0
41.8945     0
 41.907     0
41.9195     0
 41.932     0
41.9445     0
 41.957     1
41.9695     0
 41.982     0
41.9945     0
 42.007     0
42.0195     0
 42.032     0
42.0445     0
 42.057     1
42.0696     0
42.0821     1
42.0946     0
42.1071     0
42.1196     0
42.1321     0
42.1446     0
42.1571     1
42.1696     0
42.1821     0
42.1946     0
42.2071     0
42.2196     1
42.2321     0
42.2447     0
42.2572     0
42.2697     0
42.2822     0
42.2947     0
42.3072     1
42.3197     0
42.3322     0
42.3447     0
42.3572     0
42.3697     0
42.3822     0
42.3947     0
42.4072     0
42.4198     0
42.4323     0
42.4448     0
42.4573     0
42.4698     0
42.4823     0
42.4948     0
42.5073     0
42.5198     0
42.5323     0
42.5448     0
42.5573     1
42.5698     0
42.5824     0
42.5949     0
42.6074     0
42.6199     0
42.6324     0
42.6449     0
42.6574     0
42.6699     0
42.6824     0
42.6949     0
42.7074     0
42.7199     0
42.7324     0
42.7449     0
42.7575     0
  42.77     0
42.7825     0
 42.795     0
42.8075     0
  42.82     0
42.8325     0
 42.845     0
42.8575     0
  42.87     1
42.8825     0
 42.895     0
42.9075     0
  42.92     0
42.9326     0
42.9451     0
42.9576     0
42.9701     0
42.9826     0
42.9951     0
43.0076     0
43.0201     0
43.0326     0
43.0451     0
43.0576     0
43.0701     0
43.0826     0
43.0951     0
43.1077     0
43.1202     0
43.1327     0
43.1452     0
43.1577     1
43.1702     0
43.1827     0
43.1952     0
43.2077     0
43.2202     0
43.2327     0
43.2452     0
43.2577     0
43.2703     0
43.2828     0
43.2953     0
43.3078     0
43.3203     0
43.3328     0
43.3453     0
43.3578     0
43.3703     0
43.3828     0
43.3953     0
43.4078     0
43.4203     0
43.4328     0
43.4454     0
43.4579     0
43.4704     0
43.4829     0
43.4954     0
43.5079     1
43.5204     0
43.5329     0
43.5454     0
43.5579     0
43.5704     0
43.5829     0
43.5954     0
43.6079     0
43.6205     0
 43.633     0
43.6455     0
 43.658     0
43.6705     0
 43.683     0
43.6955     0
 43.708     0
43.7205     0
 43.733     0
43.7455     0
 43.758     0
43.7705     0
 43.783     0
43.7956     0
43.8081     0
43.8206     0
43.8331     0
43.8456     0
43.8581     0
43.8706     0
43.8831     0
43.8956     0
43.9081     0
43.9206     0
43.9331     0
43.9456     0
43.9582     0
43.9707     0
43.9832     0
43.9957     0
44.0082     0
44.0207     0
44.0332     0
44.0457     0
44.0582     0
44.0707     0
44.0832     0
44.0957     0
44.1082     0
44.1207     0
44.1333     1
44.1458     0
44.1583     0
44.1708     0
44.1833     0
44.1958     0
44.2083     0
44.2208     0
44.2333     0
44.2458     0
44.2583     0
44.2708     0
44.2833     0
44.2958     0
44.3084     0
44.3209     0
44.3334     0
44.3459     0
44.3584     0
44.3709     0
44.3834     0
44.3959     0
44.4084     0
44.4209     0
44.4334     0
44.4459     0
44.4584     0
44.4709     0
44.4835     0
 44.496     0
44.5085     0
 44.521     0
44.5335     0
 44.546     0
44.5585     0
 44.571     0
44.5835     0
 44.596     0
44.6085     0
 44.621     0
44.6335     0
44.6461     0
44.6586     0
44.6711     0
44.6836     0
44.6961     0
44.7086     0
44.7211     0
44.7336     0
44.7461     0
44.7586     0
44.7711     0
44.7836     0
44.7961     0
44.8086     0
44.8212     0
44.8337     0
44.8462     0
44.8587     0
44.8712     0
44.8837     0
44.8962     0
44.9087     0
44.9212     0
44.9337     0
44.9462     0
44.9587     0
44.9712     0
44.9837     0
44.9963     0
45.0088     0
45.0213     0
45.0338     0
45.0463     0
45.0588     0
45.0713     0
45.0838     0
45.0963     0
45.1088     0
45.1213     0
45.1338     0
45.1463     0
45.1588     0
45.1714     0
45.1839     0
45.1964     0
45.2089     0
45.2214     0
45.2339     0
45.2464     0
45.2589     0
45.2714     0
45.2839     0
45.2964     0
45.3089     0
45.3214     0
 45.334     0
45.3465     0
 45.359     0
45.3715     0
 45.384     0
45.3965     0
 45.409     0
45.4215     0
 45.434     1
45.4465     0
 45.459     0
45.4715     0
 45.484     0
45.4965     0
45.5091     0
45.5216     0
45.5341     0
45.5466     0
45.5591     0
45.5716     0
45.5841     0
45.5966     0
45.6091     0
45.6216     0
45.6341     0
45.6466     0
45.6591     0
45.6716     0
45.6842     0
45.6967     0
45.7092     0
45.7217     0
45.7342     0
45.7467     0
45.7592     0
45.7717     0
45.7842     0
45.7967     0
45.8092     0
45.8217     0
45.8342     0
45.8467     0
45.8593     0
45.8718     0
45.8843     0
45.8968     0
45.9093     0
45.9218     0
45.9343     1
45.9468     1
45.9593     0
45.9718     0
45.9843     0
45.9968     0
46.0093     0
46.0219     0
46.0344     0
46.0469     0
46.0594     0
46.0719     0
46.0844     0
46.0969     0
46.1094     0
46.1219     0
46.1344     0
46.1469     0
46.1594     0
46.1719     0
46.1844     0
 46.197     0
46.2095     0
 46.222     0
46.2345     0
 46.247     0
46.2595     0
 46.272     0
46.2845     0
 46.297     0
46.3095     0
 46.322     0
46.3345     0
 46.347     0
46.3595     0
46.3721     0
46.3846     0
46.3971     0
46.4096     0
46.4221     0
46.4346     0
46.4471     0
46.4596     0
46.4721     0
46.4846     0
46.4971     0
46.5096     0
46.5221     0
46.5346     0
46.5472     0
46.5597     0
46.5722     0
46.5847     0
46.5972     0
46.6097     0
46.6222     0
46.6347     0
46.6472     0
46.6597     0
46.6722     0
46.6847     0
46.6972     0
46.7098     0
46.7223     0
46.7348     1
46.7473     0
46.7598     0
46.7723     0
46.7848     0
46.7973     0
46.8098     0
46.8223     0
46.8348     0
46.8473     0
46.8598     0
46.8723     0
46.8849     0
46.8974     0
46.9099     0
46.9224     0
46.9349     0
46.9474     0
46.9599     0
46.9724     0
46.9849     0
46.9974     0
47.0099     0
47.0224     0
47.0349     0
47.0474     0
  47.06     0
47.0725     0
 47.085     0
47.0975     0
  47.11     0
47.1225     0
 47.135     0
47.1475     0
  47.16     0
47.1725     0
 47.185     0
47.1975     0
  47.21     0
47.2225     0
47.2351     0
47.2476     0
47.2601     0
47.2726     0
47.2851     0
47.2976     0
47.3101     0
47.3226     0
47.3351     0
47.3476     0
47.3601     0
47.3726     0
47.3851     0
47.3977     0
47.4102     0
47.4227     0
47.4352     0
47.4477     0
47.4602     0
47.4727     0
47.4852     0
47.4977     0
47.5102     0
47.5227     0
47.5352     0
47.5477     0
47.5602     0
47.5728     0
47.5853     0
47.5978     0
47.6103     0
47.6228     0
47.6353     0
47.6478     0
47.6603     0
47.6728     0
47.6853     1
47.6978     0
47.7103     0
47.7228     0
47.7353     0
47.7479     0
47.7604     0
47.7729     0
47.7854     0
47.7979     1
47.8104     0
47.8229     0
47.8354     0
47.8479     0
47.8604     0
47.8729     0
47.8854     0
47.8979     0
47.9104     0
 47.923     0
47.9355     0
 47.948     0
47.9605     0
 47.973     0
47.9855     0
 47.998     0
48.0105     0
 48.023     0
48.0355     0
 48.048     0
48.0605     0
 48.073     0
48.0856     0
48.0981     0
48.1106     0
48.1231     0
48.1356     0
48.1481     0
48.1606     0
48.1731     0
48.1856     0
48.1981     0
48.2106     0
48.2231     0
48.2356     0
48.2481     0
48.2607     0
48.2732     0
48.2857     0
48.2982     0
48.3107     0
48.3232     0
48.3357     0
48.3482     0
48.3607     0
48.3732     0
48.3857     0
48.3982     0
48.4107     0
48.4232     0
48.4358     0
48.4483     0
48.4608     0
48.4733     0
48.4858     0
48.4983     0
48.5108     0
48.5233     0
48.5358     0
48.5483     0
48.5608     0
48.5733     0
48.5858     0
48.5983     0
48.6109     0
48.6234     0
48.6359     0
48.6484     0
48.6609     0
48.6734     0
48.6859     0
48.6984     0
48.7109     0
48.7234     0
48.7359     0
48.7484     0
48.7609     0
48.7735     0
 48.786     0
48.7985     0
 48.811     0
48.8235     0
 48.836     0
48.8485     0
 48.861     0
48.8735     0
 48.886     0
48.8985     0
 48.911     0
48.9235     0
 48.936     0
48.9486     0
48.9611     0
48.9736     0
48.9861     0
48.9986     0
49.0111     0
49.0236     0
49.0361     0
49.0486     0
49.0611     0
49.0736     0
49.0861     0
49.0986     0
49.1111     0
49.1237     0
49.1362     0
49.1487     0
49.1612     0
49.1737     0
49.1862     0
49.1987     0
49.2112     0
49.2237     0
49.2362     0
49.2487     0
49.2612     0
49.2737     0
49.2862     0
49.2988     0
49.3113     0
49.3238     0
49.3363     0
49.3488     0
49.3613     0
49.3738     0
49.3863     0
49.3988     0
49.4113     0
49.4238     0
49.4363     0
49.4488     0
49.4614     0
49.4739     0
49.4864     0
49.4989     0
49.5114     0
49.5239     0
49.5364     0
49.5489     0
49.5614     0
49.5739     0
49.5864     0
49.5989     0
49.6114     0
49.6239     0
49.6365     0
 49.649     0
49.6615     0
 49.674     0
49.6865     0
 49.699     0
49.7115     0
 49.724     0
49.7365     0
 49.749     0
49.7615     0
 49.774     0
49.7865     0
 49.799     0
49.8116     0
49.8241     0
49.8366     0
49.8491     0
49.8616     0
49.8741     0
49.8866     0
49.8991     0
49.9116     0
49.9241     0
49.9366     0
49.9491     0
49.9616     0
49.9741     0
49.9867     0
49.9992     0
50.0117     0
50.0242     0
